-----------------------------------------------------
BloodHound 307 VOC Analyser V2017.1
RoboScientific Ltd 
Espace North
Wisbech Road
Littleport
Cambridgeshire, UK
CB6 1RA 
-----------------------------------------------------
Date = 24/02/2021
Time = 12:37:32
Data is protected by RoboScientific Limited
-----------------------------------------------------
Name of the experiment = "1591P"
-----------------------------------------------------
Repeat No. = 2/5
-----------------------------------------------------
Experimental Time (in sec) and Flow Profile :
-----------------------------------------------------
Baseline = 2.00
Absorb = 4.00
Pause = 1.00
Desorb = 5.00
Flush = 18.00
Wait = 5.00
Higher Flow (V) = 4.00
Medium Flow (V) = 3.00
Low Flow (V) = 1.00
-----------------------------------------------------
Total Profile Time = 35 in sec
-----------------------------------------------------
Acquired data point per second = 4
--------------------------------------------------
Total data point stored  = 120
-----------------------------------------------------
Acquired sensor responses from 24 sensors
-----------------------------------------------------

Data Points	 Sen-1	 Sen-2	 Sen-3	 Sen-4	 Sen-5	 Sen-6	 Sen-7	 Sen-8	 Sen-9	 Sen-10	 Sen-11	 Sen-12	 Sen-13	 Sen-14	 Sen-15	 Sen-16	 Sen-17	 Sen-18	 Sen-19	 Sen-20	 Sen-21	 Sen-22	 Sen-23	 Sen-24	Humidity (%r.h.)
0.000	312.727	303.822	283.935	284.365	229.241	294.798	286.585	305.612	243.518	223.058	300.336	303.201	107.129	116.344	135.657	134.273	189.802	124.437	132.983	113.336	175.287	196.081	118.230	115.604	51.023
1.000	312.870	303.130	284.007	284.341	229.432	295.156	286.728	305.780	243.398	223.058	300.527	303.249	106.866	116.153	135.538	134.225	189.778	124.270	132.960	113.360	175.168	196.057	118.206	115.508	45.022
2.000	312.989	303.321	283.888	284.651	229.384	295.013	286.800	305.970	243.541	223.273	300.265	303.440	106.938	116.368	135.514	134.106	189.707	124.270	132.912	113.431	175.287	195.962	118.325	115.413	30.674
3.000	313.013	303.631	283.840	284.723	229.599	294.654	287.158	305.875	243.589	223.512	300.814	303.488	107.248	116.248	135.490	134.153	189.707	124.437	132.936	113.407	175.120	195.986	118.325	115.460	30.855
4.000	312.942	303.512	283.840	284.031	229.528	295.275	286.752	305.565	243.685	222.867	300.289	303.631	107.081	116.224	135.514	134.082	189.707	124.341	133.103	113.360	175.048	195.962	118.158	115.627	45.564
5.000	313.013	303.631	284.031	284.317	229.504	295.036	286.538	305.636	243.732	223.249	300.671	303.488	107.200	116.200	135.466	134.344	189.707	124.294	132.745	113.383	175.192	196.129	118.325	115.508	50.843
6.000	313.156	303.177	283.935	284.532	229.384	295.442	286.967	305.851	243.732	223.297	300.169	303.774	107.320	116.248	135.442	134.368	189.707	124.198	132.840	113.360	175.001	195.938	118.492	115.651	38.931
7.000	312.512	303.464	284.389	284.413	229.575	295.132	286.633	305.421	243.589	223.106	300.885	303.703	106.914	116.105	135.490	134.225	189.683	124.294	132.625	113.383	175.239	196.105	118.254	115.532	28.148
8.000	312.822	303.655	284.293	284.341	229.552	294.631	286.824	305.803	243.947	223.297	300.503	303.655	107.176	116.224	135.347	134.177	189.587	124.246	132.888	113.312	175.048	196.033	118.206	115.532	37.217
9.000	312.512	302.843	283.888	284.341	229.217	295.132	286.967	305.899	243.756	223.297	300.121	303.870	106.938	116.009	135.347	134.273	189.755	124.294	132.602	113.264	175.025	195.986	118.254	115.484	50.256
10.000	312.369	303.631	284.270	283.935	229.193	295.442	287.134	305.732	243.637	223.416	300.575	303.822	107.773	116.368	135.562	134.106	189.659	124.365	132.888	113.431	174.953	196.009	118.230	115.389	46.105
11.000	303.893	302.533	283.840	284.580	229.480	294.583	286.394	305.636	242.324	222.366	299.668	302.795	116.439	116.750	135.490	134.106	189.564	124.580	133.246	113.455	176.338	196.463	118.659	115.914	31.802
12.000	290.548	300.241	283.864	285.057	229.981	293.723	284.890	304.920	240.295	222.103	299.381	301.244	128.376	119.567	135.610	134.177	189.158	125.416	134.535	113.741	178.701	197.131	119.447	117.728	30.088
13.000	276.964	295.896	283.935	284.198	230.602	292.649	282.909	304.848	237.239	220.814	297.543	298.546	141.315	123.291	135.801	134.106	188.991	126.657	136.493	114.195	181.399	198.230	121.047	120.736	43.669
14.000	263.547	292.410	283.315	284.222	230.602	290.524	278.659	304.013	234.183	219.358	294.368	295.800	155.687	127.254	136.254	134.177	188.680	128.782	140.337	114.816	184.956	199.519	124.604	123.195	50.527
15.000	249.940	288.471	283.362	284.484	230.817	287.063	272.691	302.700	231.127	218.427	289.832	293.127	169.534	131.527	136.684	134.392	188.489	131.527	146.544	116.081	188.251	200.832	129.116	126.299	40.465
16.000	238.027	283.935	282.670	283.744	230.745	283.362	265.004	300.718	227.976	217.233	284.699	289.569	181.781	136.087	137.161	134.822	188.155	135.228	154.398	118.086	190.948	202.097	133.938	129.593	29.997
17.000	226.782	279.256	282.622	283.410	230.841	280.044	256.075	298.379	227.594	216.254	279.948	286.323	192.452	140.289	137.591	135.204	188.251	138.737	162.969	120.331	191.473	203.195	138.498	132.960	36.179
18.000	218.570	273.885	281.357	282.193	230.888	276.702	247.385	296.397	229.886	215.490	274.744	283.052	201.691	144.920	138.164	135.705	188.274	142.413	171.682	122.909	189.182	203.935	144.156	136.708	47.007
19.000	223.655	269.420	280.617	281.691	231.342	273.741	239.793	294.058	233.324	215.347	269.444	279.447	196.773	149.958	138.737	136.517	188.370	145.899	180.444	125.344	185.696	204.150	149.695	140.408	45.473
20.000	229.862	264.359	279.853	280.832	230.817	269.969	231.796	291.551	237.406	216.087	263.022	274.840	189.659	154.971	139.596	137.710	188.513	149.408	188.298	127.445	181.638	203.171	155.568	144.323	35.637
21.000	236.523	259.417	279.280	280.020	230.698	265.935	224.323	289.450	241.130	217.328	257.340	270.948	182.998	159.793	140.384	138.904	188.728	153.133	195.102	129.928	177.316	201.811	161.130	148.167	33.246
22.000	242.610	254.523	278.253	277.943	229.886	261.685	219.596	287.158	245.833	218.641	251.587	266.794	177.078	164.807	141.363	139.811	189.158	157.191	199.781	132.291	173.306	199.758	166.788	151.844	41.187
23.000	247.624	249.367	276.558	277.060	229.026	257.937	222.581	283.768	250.154	221.697	245.690	263.046	172.017	169.677	142.533	141.363	189.635	161.083	196.940	135.204	169.390	197.275	173.234	156.188	45.789
24.000	253.186	244.998	275.651	275.508	228.859	254.022	228.024	281.452	253.902	223.631	239.937	259.107	167.266	174.523	143.583	142.700	190.399	165.595	191.712	137.710	165.356	195.269	179.035	160.438	40.736
25.000	255.956	240.724	274.911	274.458	227.880	249.605	232.321	278.731	256.958	225.947	234.040	255.216	164.186	178.988	145.040	143.965	191.473	169.844	187.463	140.408	162.324	192.882	184.956	164.186	35.141
26.000	255.192	241.560	274.290	274.983	227.045	248.674	232.727	280.068	257.484	227.212	233.515	256.385	164.902	178.176	145.541	143.894	192.023	170.608	187.319	139.095	162.037	192.166	185.219	162.992	37.668
27.000	253.855	242.992	273.885	275.174	226.997	249.390	232.202	280.975	257.030	228.048	234.446	257.030	166.263	176.982	145.660	143.512	192.285	170.369	187.701	138.069	162.205	191.402	184.789	162.300	43.939
28.000	252.971	243.685	273.980	274.959	226.830	249.080	232.488	282.073	257.531	228.573	234.350	258.009	167.361	176.242	145.660	143.392	192.476	170.393	187.916	137.281	162.085	190.733	184.813	161.584	43.488
29.000	253.401	243.780	273.908	275.030	226.687	249.295	233.371	282.336	257.579	229.098	234.302	257.865	166.693	176.099	145.780	143.177	192.739	170.345	186.770	137.233	161.584	190.041	185.051	161.417	37.532
30.000	257.698	240.008	272.930	275.030	225.971	246.693	237.501	280.163	259.966	230.483	230.029	254.881	162.228	179.680	146.209	143.774	193.121	172.088	181.757	139.023	159.125	188.322	188.227	163.923	35.231
31.000	248.412	243.494	272.643	273.431	225.326	242.968	242.658	276.296	263.404	232.058	225.469	257.818	171.491	176.815	147.140	145.207	193.837	176.314	176.576	142.891	156.045	186.699	193.574	161.894	40.465
32.000	239.507	255.574	271.473	272.404	224.753	239.173	247.624	273.407	265.290	232.822	225.684	266.794	178.367	163.255	148.549	146.591	194.840	180.110	172.422	145.159	153.825	186.388	193.288	152.106	44.751
33.000	263.977	268.107	269.945	270.638	223.321	236.308	250.345	273.861	266.006	232.393	230.769	276.129	155.377	150.841	149.862	147.785	195.842	183.404	168.937	145.374	153.395	186.460	188.012	143.154	41.728
34.000	279.017	277.537	267.892	269.993	222.628	234.064	252.685	275.866	266.269	231.509	238.218	282.527	140.909	142.437	151.390	149.122	197.131	185.696	166.788	143.583	152.870	187.319	181.041	136.660	33.291
35.000	288.782	284.246	267.272	268.823	221.626	232.798	253.926	277.871	265.171	230.363	246.573	287.110	131.217	135.419	152.607	149.910	197.848	186.985	165.380	140.814	153.849	188.609	172.375	131.957	34.509
36.000	294.487	288.638	266.006	268.370	221.053	232.607	254.237	281.429	263.691	228.358	254.643	290.429	124.556	130.596	153.682	150.053	198.444	186.484	165.356	137.663	155.687	190.328	163.900	128.567	45.699
37.000	299.740	292.339	265.672	268.561	220.336	234.231	253.807	285.081	260.969	227.045	262.760	292.888	119.662	127.516	154.517	149.886	198.826	184.884	166.168	134.082	158.265	192.070	155.997	126.323	47.729
38.000	303.130	294.607	264.860	269.372	220.408	237.215	252.685	287.564	257.245	224.872	269.277	294.559	116.821	125.272	155.114	149.552	198.898	182.569	167.719	131.217	161.345	193.813	149.217	124.365	36.765
39.000	304.252	296.540	264.502	270.232	220.623	239.674	249.008	290.357	253.616	223.392	274.792	295.872	114.959	123.291	155.257	149.074	198.731	179.035	170.131	128.686	164.998	195.532	143.774	122.981	29.501
40.000	306.138	298.116	264.455	271.258	221.172	244.568	246.311	292.792	250.489	221.960	279.781	297.209	113.360	121.882	155.043	148.119	198.253	175.478	173.735	126.371	168.603	197.108	139.143	122.002	39.202
41.000	307.546	297.997	265.004	271.927	221.721	247.695	242.014	294.631	246.096	220.241	283.291	298.092	111.903	121.095	154.852	146.782	197.633	170.918	177.698	124.294	172.590	198.898	135.586	121.095	50.256
42.000	308.525	300.050	265.887	273.073	222.342	252.470	236.928	296.230	242.682	218.713	286.227	298.713	111.354	120.211	154.016	145.780	196.988	166.812	182.282	122.837	176.123	200.187	132.482	120.331	44.120
43.000	309.766	299.740	266.364	274.458	223.058	257.054	231.676	297.663	239.149	217.257	288.686	298.976	110.638	119.734	153.133	144.777	196.272	162.969	187.654	121.476	179.799	201.715	130.119	119.590	30.764
44.000	309.838	300.432	267.224	274.672	223.798	260.897	226.209	298.928	235.448	216.326	290.214	299.859	110.017	119.256	152.416	143.583	195.436	158.576	193.192	120.522	182.998	202.861	128.257	119.376	32.028
45.000	309.217	300.814	268.585	275.723	224.514	264.144	221.602	299.334	233.276	215.753	292.172	300.814	109.802	118.874	151.294	142.676	194.625	154.899	198.086	119.447	185.577	203.506	126.657	118.874	45.789
46.000	310.530	301.602	269.277	276.964	225.278	268.203	220.289	300.360	230.936	215.060	292.721	300.694	109.564	118.707	150.435	141.769	194.195	151.294	199.423	118.850	187.773	204.031	125.726	118.612	50.166
47.000	310.602	301.339	270.471	277.346	225.541	270.829	224.156	300.933	229.002	215.323	293.914	300.718	109.086	118.492	149.241	140.933	193.694	148.119	195.604	118.015	189.325	203.935	124.604	118.397	38.119
48.000	310.793	301.387	271.497	277.967	225.803	273.789	229.384	301.244	228.525	215.848	294.893	301.005	108.967	118.158	148.358	140.360	193.145	145.660	190.351	117.704	190.423	203.721	124.079	118.182	28.463
49.000	311.438	301.602	271.999	278.993	225.994	276.153	234.660	301.984	227.809	216.326	295.466	301.267	109.015	118.039	147.522	139.692	192.763	143.082	184.741	117.227	191.211	203.267	123.482	117.513	37.623
50.000	311.294	301.697	273.407	279.447	226.806	278.253	239.960	302.294	228.119	216.493	295.705	300.981	108.871	117.728	146.281	138.785	192.524	140.671	179.059	116.773	191.306	202.622	122.790	118.015	50.301
51.000	310.888	302.103	274.052	279.901	226.711	280.211	245.356	302.509	228.334	217.066	296.230	301.602	108.656	117.752	145.708	138.379	192.381	138.856	173.831	116.439	191.044	202.288	122.384	117.633	45.473
52.000	311.485	302.103	274.744	280.593	227.570	282.240	250.154	303.106	228.716	217.257	296.588	301.411	108.442	117.633	145.087	138.069	191.927	137.137	169.820	116.224	190.662	201.835	122.002	117.490	31.441
53.000	311.414	302.079	275.580	280.856	227.260	283.720	254.093	303.344	229.146	217.877	297.209	301.458	108.322	117.585	144.204	137.591	191.736	135.801	165.618	115.890	190.041	201.262	121.882	117.513	31.080
54.000	311.557	301.840	275.771	280.665	227.403	284.317	257.125	303.679	229.862	217.901	297.233	301.578	108.489	117.466	143.464	137.328	191.760	134.440	162.014	115.460	189.420	200.951	121.667	117.442	45.473
55.000	312.560	302.318	276.487	281.787	227.785	285.774	260.253	303.416	230.578	218.594	297.281	302.055	107.916	117.490	143.106	136.946	191.641	133.628	159.053	115.484	188.609	200.665	121.214	117.299	50.436
56.000	311.748	302.127	277.131	281.787	227.451	286.466	263.237	303.607	231.414	219.167	297.830	302.055	108.131	117.346	142.557	136.708	191.545	132.745	156.308	115.389	187.964	200.187	121.047	117.179	38.570
57.000	311.891	302.485	277.489	281.715	227.642	287.660	265.457	303.870	232.082	219.620	297.806	301.912	108.107	117.275	141.984	136.493	191.402	131.861	154.279	115.102	187.319	200.020	121.095	117.108	28.193
58.000	311.724	302.748	277.967	282.145	227.642	287.779	267.272	303.965	232.607	219.549	298.713	302.485	108.131	117.442	141.602	136.350	191.426	131.217	152.249	115.102	186.770	199.686	120.665	117.084	37.126
59.000	312.130	302.151	278.564	282.312	227.809	288.614	269.110	304.180	233.252	219.883	298.140	302.270	107.892	117.203	141.220	136.063	191.330	130.644	150.626	114.864	186.245	199.447	120.689	117.012	50.211
60.000	311.581	302.748	278.803	282.169	228.143	288.949	270.423	304.037	233.968	219.859	297.997	302.604	107.845	117.275	140.933	136.135	191.282	130.166	149.194	114.864	185.624	199.352	120.545	116.988	46.376
61.000	312.010	302.628	279.256	282.861	228.167	289.856	271.760	304.061	234.135	220.432	298.212	302.127	107.940	117.155	140.647	136.230	191.163	129.832	147.594	114.792	185.075	199.065	120.498	116.941	32.253
62.000	311.987	302.580	279.710	282.765	228.119	289.617	273.264	304.443	234.589	220.241	298.450	302.103	107.797	117.060	140.408	135.872	191.115	129.426	146.544	114.816	184.717	198.826	120.331	116.750	29.997
63.000	311.605	302.389	279.041	282.575	227.952	290.095	273.861	304.323	234.971	220.289	298.952	302.509	107.797	116.964	140.074	135.753	191.044	129.092	145.517	114.792	184.216	198.731	120.283	117.012	43.353
64.000	311.724	302.795	279.519	282.933	228.191	290.429	275.007	304.538	235.806	220.599	298.976	302.366	107.916	117.060	139.787	135.586	191.044	128.758	144.753	114.673	183.715	198.707	120.068	116.678	51.113
65.000	311.891	302.676	279.710	282.813	228.358	291.026	275.651	304.395	235.401	220.623	298.761	302.962	107.678	116.845	139.692	135.705	191.068	128.519	143.822	114.553	183.643	198.468	120.116	116.726	40.691
66.000	311.891	302.867	280.092	283.529	228.095	291.002	276.511	304.681	235.902	220.886	298.880	302.700	107.701	117.060	139.525	135.610	191.020	128.185	143.225	114.577	183.094	198.301	119.996	116.678	28.283
67.000	311.772	303.058	280.927	282.909	228.621	291.336	277.322	304.466	236.212	220.599	298.928	302.509	107.964	116.941	139.262	135.395	190.996	128.042	142.437	114.601	182.712	198.277	119.710	116.630	35.457
68.000	311.963	302.318	280.163	283.004	228.358	291.384	277.967	304.801	236.714	221.005	298.761	302.700	107.821	117.012	139.119	135.299	190.853	127.731	141.817	114.696	182.354	198.158	119.781	116.487	49.128
69.000	311.987	302.652	280.712	283.076	228.215	291.360	278.373	304.729	236.905	221.411	299.095	302.151	107.582	116.821	139.047	135.466	190.996	127.707	141.411	114.458	182.043	198.110	119.734	116.535	47.865
70.000	312.345	302.795	280.689	283.601	228.501	292.124	279.304	304.896	237.191	221.220	298.808	302.103	107.678	116.964	138.928	135.466	190.972	127.540	140.599	114.362	181.733	197.919	119.781	116.630	33.427
71.000	312.345	302.891	280.832	283.673	228.262	292.291	279.017	304.920	237.788	221.482	298.904	302.676	107.797	116.797	138.641	135.204	190.829	127.445	140.408	114.267	181.733	197.943	119.781	116.678	29.321
72.000	311.748	303.010	281.381	283.434	228.143	292.028	279.757	304.538	237.669	221.315	299.477	302.819	107.582	117.012	138.451	135.299	190.853	127.349	139.931	114.314	181.399	197.824	119.686	116.487	41.954
73.000	311.628	303.153	281.500	283.315	228.262	291.718	279.495	304.657	238.074	221.458	299.238	303.034	107.678	116.678	138.427	135.204	190.853	127.111	139.596	114.291	181.112	197.776	119.543	116.511	51.429
74.000	311.891	303.297	281.452	283.649	228.525	292.315	280.450	304.848	238.074	221.602	299.477	302.748	107.678	116.750	138.212	135.084	190.781	126.896	139.382	114.338	180.921	197.728	119.471	116.391	41.097
75.000	312.321	302.724	281.357	283.625	228.382	292.649	280.951	304.753	238.265	221.817	299.214	302.533	107.869	116.726	138.092	135.204	190.757	126.920	139.214	114.171	180.468	197.561	119.471	116.582	28.644
76.000	311.963	303.535	281.787	283.458	228.668	292.267	280.617	304.848	239.005	221.196	299.238	303.010	107.773	116.797	138.045	135.108	190.853	126.633	138.474	114.123	180.420	197.585	119.423	116.391	34.284
77.000	311.915	303.010	281.500	283.291	228.764	292.840	281.214	304.586	238.671	221.506	299.620	303.010	107.678	116.917	138.092	134.965	190.709	126.848	138.283	114.147	180.277	197.561	119.280	116.296	48.587
78.000	312.249	303.225	281.858	283.362	228.525	292.816	281.500	304.777	239.077	221.697	299.716	302.700	107.678	116.773	137.997	135.084	190.805	126.490	137.997	114.052	179.990	197.466	119.185	116.463	48.451
79.000	312.942	303.106	281.500	283.315	228.430	293.079	281.691	305.016	238.791	221.793	299.525	302.843	107.439	116.821	137.710	135.013	190.662	126.490	137.854	114.052	180.038	197.513	119.352	116.296	34.419
80.000	312.512	302.771	281.500	283.076	228.740	293.055	282.312	305.063	239.292	221.888	299.071	302.843	107.678	116.726	137.591	134.917	190.757	126.490	137.472	114.052	179.752	197.275	119.304	116.320	28.779
81.000	312.369	302.891	281.834	283.888	228.644	293.174	282.169	304.729	239.125	222.151	299.620	302.771	107.678	116.726	137.710	134.774	190.614	126.227	137.448	114.219	179.465	197.322	119.280	116.296	41.277
82.000	312.225	303.321	282.145	283.362	228.644	292.816	282.360	305.039	239.698	221.602	299.405	302.843	107.367	116.773	137.639	134.893	190.709	126.251	137.114	114.052	179.465	197.251	119.137	116.272	51.429
83.000	312.774	302.509	282.288	283.458	228.358	293.485	282.527	305.087	239.531	221.888	299.286	303.225	107.320	116.630	137.543	134.941	190.638	126.180	136.994	113.909	179.322	197.370	119.113	116.415	42.586
84.000	312.297	303.273	282.479	283.458	228.215	292.959	282.598	304.968	239.865	222.103	299.763	302.867	107.534	116.702	137.496	134.869	190.757	126.180	136.708	113.980	179.107	197.155	118.994	116.248	29.005
85.000	312.989	302.724	282.288	283.816	229.098	293.437	283.529	305.278	239.817	221.697	299.286	302.724	107.487	116.797	137.424	134.798	190.662	126.036	136.660	113.932	179.083	197.179	119.161	116.344	33.111
86.000	312.154	302.819	282.575	283.410	228.692	293.341	282.909	305.135	240.128	222.008	299.525	302.986	107.463	116.582	137.519	134.869	190.590	125.869	136.445	113.956	178.964	197.131	119.065	116.129	47.684
87.000	312.607	302.891	282.169	283.171	228.644	293.723	283.410	305.374	240.509	221.817	299.596	302.891	107.582	116.487	137.305	134.822	190.590	126.012	136.326	113.885	178.797	197.108	119.089	116.272	49.308
88.000	312.297	303.273	282.718	283.792	228.740	294.010	283.195	305.039	240.462	222.151	299.453	303.106	107.654	116.630	137.209	134.678	190.638	125.941	136.350	113.932	178.797	197.060	119.161	116.248	35.186
89.000	312.751	303.106	282.240	284.102	228.883	293.700	283.888	304.848	240.581	222.199	299.549	303.010	107.439	116.630	137.281	134.750	190.518	125.798	136.063	113.741	178.534	197.036	119.185	116.248	28.509
