-----------------------------------------------------
BloodHound 307 VOC Analyser V2017.1
RoboScientific Ltd 
Espace North
Wisbech Road
Littleport
Cambridgeshire, UK
CB6 1RA 
-----------------------------------------------------
Date = 24/02/2021
Time = 12:42:11
Data is protected by RoboScientific Limited
-----------------------------------------------------
Name of the experiment = "5557P"
-----------------------------------------------------
Repeat No. = 3/5
-----------------------------------------------------
Experimental Time (in sec) and Flow Profile :
-----------------------------------------------------
Baseline = 2.00
Absorb = 4.00
Pause = 1.00
Desorb = 5.00
Flush = 18.00
Wait = 5.00
Higher Flow (V) = 4.00
Medium Flow (V) = 3.00
Low Flow (V) = 1.00
-----------------------------------------------------
Total Profile Time = 35 in sec
-----------------------------------------------------
Acquired data point per second = 4
--------------------------------------------------
Total data point stored  = 120
-----------------------------------------------------
Acquired sensor responses from 24 sensors
-----------------------------------------------------

Data Points	 Sen-1	 Sen-2	 Sen-3	 Sen-4	 Sen-5	 Sen-6	 Sen-7	 Sen-8	 Sen-9	 Sen-10	 Sen-11	 Sen-12	 Sen-13	 Sen-14	 Sen-15	 Sen-16	 Sen-17	 Sen-18	 Sen-19	 Sen-20	 Sen-21	 Sen-22	 Sen-23	 Sen-24	Humidity (%r.h.)
0.000	313.491	303.655	284.675	284.890	228.907	295.227	288.495	305.803	244.162	222.891	300.289	303.440	106.866	116.391	135.251	133.867	190.232	124.150	131.288	113.360	174.308	196.535	118.206	115.317	39.202
1.000	312.774	303.822	284.699	284.556	229.122	294.893	288.233	305.803	244.616	222.342	301.363	303.822	107.057	116.224	135.132	134.010	190.351	123.935	131.193	113.336	174.332	196.535	118.182	115.484	28.057
2.000	312.918	303.846	284.866	284.819	228.835	295.538	288.161	305.708	245.093	222.772	300.408	304.037	107.057	116.153	135.204	133.843	190.375	124.031	131.241	113.145	174.428	196.439	118.158	115.604	37.397
3.000	312.727	303.416	285.201	285.606	228.812	295.657	288.209	305.326	244.878	222.724	300.336	303.917	106.866	116.177	135.013	134.082	190.375	124.079	131.360	113.360	174.237	196.511	118.110	115.389	50.843
4.000	313.061	303.416	284.413	284.986	228.788	295.442	288.543	305.970	244.854	222.819	300.312	303.535	107.129	116.272	135.108	133.771	190.280	123.959	131.097	113.312	174.285	196.487	118.039	115.532	44.932
5.000	312.607	303.798	285.033	285.224	228.883	295.347	288.209	305.517	244.735	223.082	300.098	303.344	106.770	115.938	135.156	134.010	190.351	123.935	131.097	113.192	174.237	196.511	118.301	115.413	30.178
6.000	312.822	304.132	285.153	284.771	228.883	295.132	288.113	305.565	244.854	222.342	300.647	303.774	107.057	116.177	134.846	133.795	190.351	123.888	131.217	113.192	174.237	196.367	118.134	115.484	31.531
7.000	312.870	303.344	284.723	284.771	228.788	295.227	288.710	305.684	244.616	222.485	300.384	303.703	107.176	116.153	135.037	133.891	190.471	124.007	131.169	113.169	174.237	196.344	118.110	115.580	46.692
8.000	312.655	303.870	284.699	284.795	229.193	294.965	288.256	306.138	244.854	222.963	300.909	303.607	106.914	116.153	134.989	133.795	190.328	123.983	131.050	113.192	174.237	196.606	118.182	115.556	50.211
9.000	313.013	303.607	284.365	284.699	229.074	295.490	288.614	305.970	244.831	222.772	300.909	303.631	107.057	116.129	135.251	133.986	190.304	123.888	131.097	113.288	174.070	196.487	118.063	115.341	36.404
10.000	311.223	303.607	284.174	284.389	228.740	295.466	288.233	305.398	244.449	222.628	300.766	304.084	107.463	116.248	134.869	133.962	190.280	123.888	131.026	113.288	174.022	196.415	118.373	115.413	28.418
11.000	302.962	303.130	284.747	285.081	228.788	294.845	287.636	305.230	243.231	222.318	300.169	303.392	115.795	116.726	135.037	133.891	189.850	124.126	131.479	113.360	175.335	196.773	118.636	116.081	40.104
12.000	289.044	299.644	284.532	284.819	229.743	294.153	286.561	305.254	241.035	221.172	298.856	300.981	129.761	119.781	135.228	133.652	189.587	125.081	132.649	113.622	177.818	197.442	119.495	118.086	51.158
13.000	275.580	295.944	284.198	284.771	229.838	292.959	284.651	304.944	237.979	220.193	297.328	298.355	144.490	123.577	135.562	133.938	189.349	126.418	135.180	114.243	180.778	198.850	121.071	120.975	42.856
14.000	260.778	291.766	283.816	284.675	230.053	290.596	280.569	303.941	234.613	219.191	293.795	295.371	158.934	127.660	135.824	133.843	189.038	128.495	139.214	114.959	184.240	200.020	124.771	123.721	29.682
15.000	247.122	287.349	283.625	284.651	230.650	287.349	274.147	302.771	231.079	218.045	289.331	292.673	172.064	131.670	136.302	134.201	188.895	131.623	144.872	116.296	187.797	201.190	129.331	126.490	34.554
16.000	234.684	282.670	282.670	283.744	230.244	283.649	266.054	300.885	228.453	216.517	284.341	288.901	184.908	136.254	136.755	134.344	188.728	135.562	152.846	118.468	190.781	202.455	134.416	130.334	46.962
17.000	224.108	278.421	281.978	283.338	230.268	280.545	258.104	298.689	227.522	215.538	279.304	285.630	196.200	141.244	137.305	134.893	188.776	139.143	162.085	120.784	191.664	203.697	139.477	133.533	46.601
18.000	219.143	273.717	281.572	283.195	230.268	276.439	248.889	296.159	229.695	214.965	274.076	281.691	201.357	146.138	137.925	135.562	188.776	142.748	170.966	123.028	189.420	204.007	144.920	137.663	35.276
19.000	225.565	268.346	280.569	282.049	230.459	273.240	240.295	293.270	232.870	215.013	267.797	277.418	194.338	150.936	138.546	136.230	188.823	146.042	179.011	125.583	185.744	203.888	150.077	140.886	32.344
20.000	232.488	263.333	279.638	281.047	229.814	269.182	232.011	291.217	237.167	216.803	262.449	274.171	187.057	156.188	139.501	137.400	188.847	149.671	186.842	128.089	181.733	202.789	156.308	145.159	42.089
21.000	238.504	258.629	279.232	280.044	229.934	265.433	225.302	288.447	241.059	217.830	256.314	269.754	180.850	160.772	140.217	138.665	189.277	153.562	194.625	130.286	177.579	201.262	162.014	149.361	46.782
22.000	243.661	253.831	278.540	279.041	229.552	261.685	219.811	286.132	245.977	220.002	250.536	266.078	175.383	166.311	141.459	139.859	189.731	157.621	199.662	132.888	173.425	198.994	168.507	153.395	40.194
23.000	249.319	248.841	277.561	276.797	228.668	257.102	221.840	283.386	249.701	222.175	244.138	261.876	170.274	170.918	142.461	141.554	190.328	161.870	197.537	135.801	169.390	196.702	174.380	157.573	33.923
24.000	253.616	244.258	276.606	276.391	228.071	252.780	227.284	280.712	254.141	224.467	238.623	257.507	166.144	175.693	143.607	142.604	191.091	165.929	192.046	138.307	165.332	194.195	180.110	161.130	38.344
25.000	257.507	240.199	274.863	274.577	227.331	248.937	231.318	278.301	256.385	226.448	232.727	253.879	162.873	180.277	145.063	143.989	192.023	170.441	188.107	140.933	162.324	192.166	185.887	165.308	44.165
26.000	256.194	240.486	274.052	274.983	226.711	248.101	231.796	279.662	256.648	228.215	232.154	254.953	163.374	179.059	145.636	143.894	192.691	171.348	188.203	139.573	162.061	191.139	186.460	164.043	42.541
27.000	254.619	241.990	273.550	274.887	226.090	248.125	231.223	280.951	257.173	228.549	233.061	256.481	165.117	177.937	145.613	143.583	193.073	171.276	188.465	138.522	162.276	190.542	186.054	163.279	36.314
28.000	254.165	243.040	274.147	275.221	226.114	248.364	230.530	281.333	256.958	229.026	233.538	257.006	166.072	177.388	145.756	143.249	193.049	170.966	188.656	137.830	162.324	189.874	185.935	162.658	36.269
29.000	253.926	242.419	273.168	275.389	225.803	248.435	231.605	281.452	257.746	229.862	233.300	257.412	166.096	177.030	145.708	143.034	193.145	170.966	187.797	137.806	162.276	189.396	186.126	162.276	42.450
30.000	258.510	239.674	273.383	274.935	225.517	246.144	236.308	279.495	259.871	231.056	229.766	255.001	161.679	180.134	146.233	143.607	193.574	172.804	183.046	139.644	159.579	187.582	189.420	164.926	44.210
31.000	250.154	241.727	272.476	273.932	224.658	243.136	241.966	275.460	263.261	232.679	224.514	256.457	168.794	177.913	147.355	145.063	194.505	176.839	177.603	143.368	156.260	186.078	194.601	162.228	39.337
32.000	240.080	255.884	270.781	271.688	223.512	238.194	246.167	273.455	265.314	233.204	224.252	266.436	180.730	164.592	148.573	146.639	195.508	181.088	172.828	145.708	153.992	185.505	194.434	152.918	34.915
33.000	264.455	268.728	269.086	270.447	222.485	234.851	249.749	273.646	266.794	233.300	229.838	275.842	155.806	151.629	150.029	148.072	196.535	183.953	169.558	145.971	153.133	185.839	188.895	143.297	38.931
34.000	278.206	277.752	268.179	269.444	221.506	232.774	252.064	274.601	266.054	232.321	237.430	282.407	141.124	141.864	151.438	149.146	197.633	186.436	167.528	144.109	153.109	186.603	181.208	136.684	47.143
35.000	288.376	284.007	267.128	269.444	221.196	232.393	253.831	277.657	265.720	230.578	246.048	287.230	130.644	135.323	153.085	150.005	198.468	187.630	166.311	141.005	153.849	188.036	171.969	131.861	43.217
36.000	294.965	289.235	265.935	268.800	220.384	232.942	253.521	281.190	263.165	229.193	255.383	290.620	124.580	130.811	153.897	150.507	199.041	187.391	166.096	137.806	155.711	189.683	163.995	128.710	32.389
37.000	299.954	292.816	264.837	268.036	220.074	233.634	252.971	284.723	260.897	227.522	263.333	293.294	119.925	127.421	154.852	150.363	199.399	185.553	166.836	134.368	158.838	191.641	155.783	126.132	33.156
38.000	302.867	294.487	264.120	268.632	219.668	236.499	250.871	287.445	257.125	225.565	269.922	294.822	116.654	124.723	155.329	149.599	199.352	182.545	168.770	131.288	162.205	193.455	148.835	124.341	46.105
39.000	305.278	296.564	264.478	270.017	220.193	240.295	248.340	290.333	253.330	223.583	275.341	296.588	114.362	123.076	155.592	148.979	199.185	179.011	171.205	128.639	165.833	195.341	142.939	122.790	48.632
40.000	307.498	297.758	264.550	270.304	220.623	244.162	244.234	292.649	248.889	221.936	280.139	297.472	112.882	121.835	155.281	148.000	198.826	175.359	175.001	126.275	169.725	196.964	138.427	121.667	36.449
41.000	308.119	298.617	265.028	271.617	221.244	248.412	239.531	294.726	245.117	220.384	283.768	298.426	111.736	120.760	154.852	146.949	198.086	170.895	179.680	124.341	173.855	198.683	134.726	120.832	29.366
42.000	309.170	299.358	265.362	272.930	221.960	253.449	235.186	296.636	241.488	218.737	286.824	299.047	111.020	120.187	154.135	145.613	197.227	166.478	184.980	122.479	177.579	200.283	131.885	120.187	40.600
43.000	309.241	300.336	266.914	274.887	222.843	257.555	229.193	297.567	237.645	217.448	288.996	299.453	110.232	119.519	153.348	144.490	196.678	161.918	190.614	121.238	181.303	201.739	129.570	119.519	50.617
44.000	309.671	300.575	267.009	274.959	223.344	261.088	223.583	299.143	234.350	216.230	291.145	299.740	109.993	118.874	152.202	143.249	195.723	157.478	195.818	120.187	184.240	203.028	127.684	119.137	42.180
45.000	310.483	300.981	268.465	276.511	224.419	265.123	219.405	300.098	231.724	215.418	292.386	300.503	109.301	118.946	151.175	142.366	195.150	153.801	200.187	119.137	186.770	203.721	126.466	118.779	29.230
46.000	309.742	301.387	269.659	276.797	225.063	268.871	222.557	300.241	230.411	214.822	293.652	301.172	109.420	118.373	149.838	141.530	194.529	150.698	197.227	118.492	189.014	203.888	125.081	118.612	34.058
47.000	310.530	301.458	270.518	277.943	225.063	271.903	227.570	301.005	228.931	215.299	294.177	301.220	109.206	118.230	149.074	140.289	193.909	147.284	191.473	117.919	190.280	203.935	124.413	118.254	48.000
48.000	311.151	301.888	271.855	278.826	225.708	274.744	233.300	301.864	228.358	215.323	295.108	301.339	108.728	118.015	147.928	139.931	193.455	144.371	185.911	117.299	191.163	203.744	123.768	118.015	48.451
49.000	310.674	301.649	272.285	279.304	225.851	277.418	239.602	302.222	227.976	215.944	295.896	301.864	108.847	117.943	147.117	139.167	193.168	142.342	180.539	116.988	191.282	203.339	122.861	117.394	34.284
50.000	310.984	302.031	274.028	280.020	226.544	279.757	245.141	302.055	228.286	216.373	296.254	301.554	108.609	117.704	146.257	138.498	192.954	139.740	174.619	116.630	190.948	202.766	122.694	117.681	29.366
51.000	311.557	302.246	274.792	279.901	226.902	281.381	249.892	303.130	228.430	216.779	296.493	301.602	108.346	117.704	145.302	138.069	192.715	137.782	169.629	116.296	190.447	202.312	122.049	117.561	42.135
52.000	311.533	302.198	274.983	281.309	226.233	283.004	254.810	303.297	229.122	217.591	296.851	301.649	108.131	117.609	144.371	137.496	192.452	136.135	164.950	115.986	189.922	201.787	121.763	117.490	51.249
53.000	311.915	302.079	276.129	281.214	226.926	284.150	258.295	303.321	230.650	217.830	297.424	301.793	108.036	117.585	143.703	137.281	192.237	134.798	161.083	115.651	189.182	201.238	121.572	117.346	40.961
54.000	311.557	302.127	277.084	282.025	227.331	285.726	261.924	303.726	230.793	218.498	297.090	301.888	108.513	117.275	142.939	136.755	192.166	133.938	158.122	115.484	188.418	200.999	121.166	117.322	28.554
55.000	311.772	302.127	277.084	281.667	227.451	286.705	264.359	303.655	231.748	218.570	297.710	302.222	108.465	117.227	142.533	136.517	191.927	132.721	154.899	115.317	187.630	200.569	121.071	117.179	35.592
56.000	311.987	302.127	277.728	281.667	227.116	287.636	266.818	303.631	232.249	218.713	297.615	302.198	108.036	117.155	141.697	136.326	191.903	131.790	152.488	115.150	186.937	200.330	120.832	117.108	49.760
57.000	312.416	302.461	277.871	282.240	227.642	288.352	268.919	304.013	233.324	219.429	298.045	302.055	107.940	117.132	141.411	136.087	191.760	131.288	150.650	115.055	186.221	200.020	120.713	116.893	46.646
58.000	312.201	302.318	278.731	282.336	227.355	288.591	270.924	303.917	233.777	219.477	298.092	302.867	107.821	117.179	141.268	135.944	191.712	130.596	148.883	114.911	185.529	199.758	120.402	116.941	32.344
59.000	312.130	302.318	278.755	282.431	227.546	288.996	272.333	304.347	234.517	219.716	298.259	302.533	107.725	117.227	140.766	135.920	191.688	130.143	147.331	114.864	185.051	199.519	120.426	116.821	29.997
60.000	311.294	302.891	279.184	282.813	227.952	289.665	273.455	304.275	234.637	219.835	298.498	302.342	107.988	116.988	140.384	135.824	191.617	129.546	145.780	114.768	184.288	199.352	120.378	116.917	44.120
61.000	311.676	302.795	279.757	282.980	227.475	290.023	274.935	304.132	235.329	219.835	298.426	302.270	107.821	116.773	140.050	135.610	191.617	129.259	144.825	114.601	183.786	199.137	120.211	116.797	51.023
62.000	312.416	303.153	279.590	283.100	227.785	290.262	275.675	304.681	235.711	220.098	298.761	302.461	107.701	116.941	139.931	135.538	191.545	128.758	143.488	114.720	183.571	198.970	120.068	116.678	39.472
63.000	312.106	302.700	280.116	283.338	227.880	291.026	276.964	304.347	236.547	220.241	298.617	302.437	108.060	116.988	139.573	135.490	191.593	128.495	142.963	114.625	183.094	198.850	120.044	116.702	28.102
64.000	312.273	303.344	280.927	283.792	228.024	291.169	277.657	304.347	236.761	220.456	298.761	302.413	107.678	116.893	139.334	135.442	191.521	128.352	141.841	114.410	182.497	198.659	119.901	116.678	37.532
65.000	312.154	302.962	280.402	283.315	227.570	291.241	278.707	304.514	237.167	220.766	298.617	302.175	107.797	116.917	138.976	135.395	191.426	127.994	141.100	114.553	182.139	198.612	119.901	116.654	50.707
66.000	312.201	302.580	280.330	282.933	227.833	291.599	279.041	305.087	237.096	220.838	299.214	302.533	107.988	116.893	138.713	135.251	191.426	127.755	140.527	114.482	181.829	198.421	119.829	116.702	45.022
67.000	311.796	302.724	280.689	283.673	228.024	291.766	279.543	304.490	237.907	221.029	299.429	302.915	107.701	116.845	138.904	135.228	191.282	127.540	139.978	114.362	181.661	198.421	119.590	116.606	30.313
68.000	312.703	302.389	280.665	283.028	228.095	292.100	280.545	304.920	237.597	221.029	299.214	302.867	107.630	116.797	138.474	134.869	191.306	127.206	139.334	114.195	181.256	198.325	119.662	116.606	31.847
69.000	311.915	303.010	281.309	283.386	227.904	291.861	280.211	304.562	238.433	220.671	299.501	302.437	107.534	116.797	138.474	134.917	191.330	127.349	138.952	114.458	180.874	198.253	119.638	116.606	46.782
70.000	311.438	303.344	281.643	283.649	227.642	292.196	280.593	304.657	238.480	221.244	299.358	302.628	107.630	116.869	138.403	134.989	191.306	126.920	138.307	114.291	180.730	198.110	119.614	116.630	49.805
71.000	311.772	302.962	281.739	283.816	227.857	292.339	281.166	304.992	238.719	221.077	299.477	302.843	107.678	116.845	138.283	135.060	191.259	126.753	137.925	114.147	180.301	198.158	119.519	116.487	35.953
72.000	312.345	303.297	281.429	283.816	228.024	292.410	281.548	305.039	239.149	221.196	299.596	303.034	107.654	116.702	137.973	134.917	191.259	126.633	137.782	114.219	179.990	197.991	119.590	116.415	28.599
73.000	312.560	303.130	281.834	283.911	227.833	292.816	282.312	304.872	238.934	221.458	299.047	302.557	107.487	116.726	137.925	134.869	191.187	126.609	137.376	114.267	179.966	198.063	119.376	116.391	40.691
74.000	311.915	302.843	281.548	283.243	227.857	292.888	282.622	304.920	239.698	221.339	299.477	302.724	107.511	116.678	137.710	134.750	191.187	126.609	137.209	114.100	179.632	197.895	119.423	116.391	51.474
75.000	312.345	303.273	282.407	283.840	228.000	292.577	282.789	304.848	239.817	221.315	299.453	302.676	107.534	116.702	137.710	134.631	191.235	126.323	136.779	113.932	179.584	197.752	119.376	116.487	42.135
76.000	312.106	303.201	282.049	283.983	227.928	293.246	282.956	305.111	239.387	221.363	299.358	302.915	107.630	116.606	137.663	134.678	191.211	126.299	136.445	114.100	179.298	197.681	119.423	116.463	28.869
77.000	312.703	303.679	281.954	283.959	228.167	292.936	283.243	305.039	240.390	221.100	299.763	302.724	107.487	116.606	137.424	134.559	191.187	126.203	136.230	113.932	179.155	197.657	119.376	116.344	34.419
78.000	312.321	303.177	282.193	283.768	228.286	293.222	283.506	304.968	239.937	221.602	299.477	302.795	107.558	116.559	137.328	134.798	191.211	126.203	136.087	113.932	179.035	197.776	119.113	116.487	48.993
79.000	312.942	303.010	282.049	283.935	228.191	293.389	284.198	305.445	239.841	221.554	299.334	302.533	107.320	116.559	137.185	134.655	191.115	126.012	135.896	114.004	178.677	197.681	119.089	116.368	47.684
80.000	311.987	303.488	282.694	284.532	227.976	293.079	283.864	304.753	240.223	221.554	299.238	302.939	107.343	116.535	137.305	134.678	191.163	126.036	135.633	113.932	178.606	197.704	119.161	116.248	32.930
81.000	312.106	303.034	282.646	283.935	227.952	293.556	284.389	305.207	240.700	221.554	299.262	303.225	107.343	116.391	137.114	134.559	191.044	125.869	135.323	113.932	178.295	197.561	119.232	116.248	29.907
82.000	311.891	303.512	282.455	284.126	227.713	293.532	284.246	304.872	240.700	221.697	299.907	303.225	107.439	116.606	137.281	134.416	191.020	125.798	135.108	113.765	178.176	197.466	119.161	116.224	43.984
83.000	312.249	302.986	282.288	283.840	227.880	293.509	284.126	305.421	241.202	221.602	299.620	303.177	107.654	116.678	137.114	134.416	191.020	125.702	135.108	113.956	178.152	197.537	119.041	116.224	51.158
84.000	312.392	303.153	282.598	284.461	228.191	293.676	284.842	305.493	241.178	221.960	299.549	302.748	107.487	116.535	137.042	134.368	191.044	125.750	135.037	113.861	177.937	197.418	119.113	116.081	39.157
85.000	312.798	303.321	282.789	284.413	227.952	293.771	284.795	305.302	241.345	221.411	299.358	303.034	107.511	116.535	136.946	134.559	191.091	125.678	134.869	113.646	177.866	197.442	119.041	116.153	28.057
86.000	312.440	303.106	282.646	284.413	228.501	293.962	285.010	305.111	241.584	221.936	299.405	302.891	107.439	116.487	136.851	134.488	190.996	125.607	134.655	113.861	177.842	197.490	119.113	116.105	37.487
87.000	312.034	303.535	282.956	283.983	228.239	293.819	285.224	304.801	241.560	221.602	299.190	303.010	107.296	116.678	136.827	134.464	191.020	125.559	134.344	113.789	177.603	197.275	118.946	116.009	50.752
88.000	312.106	303.106	283.052	284.461	228.191	293.867	285.344	305.254	241.273	221.960	299.358	303.034	107.415	116.511	136.660	134.320	190.996	125.344	134.464	113.694	177.722	197.346	118.994	116.177	45.293
89.000	312.416	303.225	283.052	284.317	227.785	293.938	285.081	304.992	241.488	221.960	300.193	303.225	107.487	116.678	136.612	134.297	190.948	125.201	134.344	113.956	177.460	197.346	118.803	116.057	30.719
