-----------------------------------------------------
BloodHound 307 VOC Analyser V2017.1
RoboScientific Ltd 
Espace North
Wisbech Road
Littleport
Cambridgeshire, UK
CB6 1RA 
-----------------------------------------------------
Date = 21/04/2022
Time = 12:06:34
Data is protected by RoboScientific Limited
-----------------------------------------------------
Name of the experiment = "44b_Day 38"
-----------------------------------------------------
Repeat No. = 4/4
-----------------------------------------------------
Experimental Time (in sec) and Flow Profile :
-----------------------------------------------------
Baseline = 2.00
Absorb = 4.00
Pause = 1.00
Desorb = 5.00
Flush = 20.00
Wait = 5.00
Higher Flow (V) = 4.00
Medium Flow (V) = 3.00
Low Flow (V) = 1.00
-----------------------------------------------------
Total Profile Time = 37 in sec
-----------------------------------------------------
Acquired data point per second = 4
--------------------------------------------------
Total data point stored  = 128
-----------------------------------------------------
Acquired sensor responses from 24 sensors
-----------------------------------------------------

Data Points	 Sen-1	 Sen-2	 Sen-3	 Sen-4	 Sen-5	 Sen-6	 Sen-7	 Sen-8	 Sen-9	 Sen-10	 Sen-11	 Sen-12	 Sen-13	 Sen-14	 Sen-15	 Sen-16	 Sen-17	 Sen-18	 Sen-19	 Sen-20	 Sen-21	 Sen-22	 Sen-23	 Sen-24	Humidity (%r.h.)
0.000	303.822	226.376	242.682	303.846	313.109	314.422	315.066	303.750	290.095	303.488	229.695	217.901	115.890	193.336	176.505	114.649	105.815	104.502	104.240	115.222	128.830	115.675	188.370	201.739	40.375
1.000	303.870	226.042	242.849	304.299	312.942	314.469	314.780	303.631	290.023	303.058	230.029	217.901	115.818	193.789	176.290	114.553	105.935	104.407	104.120	115.031	128.710	115.675	188.418	201.858	40.014
2.000	303.846	225.708	242.968	304.061	312.751	314.302	314.899	303.512	290.095	303.512	229.981	217.925	115.580	194.076	176.218	114.577	105.815	104.335	104.240	115.126	128.782	115.532	188.489	202.025	39.833
3.000	303.679	225.398	243.494	304.013	312.942	314.469	314.851	303.583	290.310	303.607	229.934	218.045	115.699	194.529	176.123	114.529	105.911	104.383	104.120	114.935	128.734	115.556	188.322	201.954	39.969
4.000	304.204	225.254	243.470	304.443	313.156	314.637	314.923	303.679	290.142	303.201	230.029	217.854	115.341	194.887	175.932	114.410	105.911	104.359	103.953	115.055	128.686	115.532	188.465	202.002	40.510
5.000	304.132	224.586	243.780	304.180	312.989	314.828	315.162	303.535	290.095	303.201	229.910	218.068	115.269	195.198	175.956	114.505	105.696	104.311	104.144	115.174	128.853	115.675	188.370	202.025	40.555
6.000	304.108	224.419	243.518	303.989	313.037	314.278	315.162	303.917	290.429	303.416	230.125	217.806	115.460	195.484	175.669	114.529	105.911	104.479	104.216	115.078	128.639	115.436	188.465	202.002	40.330
7.000	304.252	224.204	243.876	304.347	312.894	314.350	314.971	303.750	290.119	303.177	229.814	217.615	115.293	195.771	175.669	114.482	105.744	104.455	104.168	115.102	128.853	115.413	188.465	202.097	39.924
8.000	304.466	223.870	244.043	304.419	312.965	314.493	314.684	303.703	290.357	303.631	229.790	217.877	115.293	196.200	175.311	114.625	105.720	104.407	104.264	114.983	128.806	115.341	188.465	202.073	39.924
9.000	304.323	223.392	244.496	303.703	312.607	314.398	314.899	303.607	290.142	303.392	229.838	217.519	115.174	196.487	175.311	114.314	105.839	104.311	104.192	115.150	128.853	115.317	188.274	201.978	40.104
10.000	302.151	261.327	243.900	304.275	312.989	314.398	314.971	303.416	290.214	302.652	229.504	254.762	117.299	159.984	175.430	114.505	105.983	104.359	104.216	115.222	128.424	116.344	188.656	166.764	40.510
11.000	261.447	293.891	240.175	302.509	312.631	313.896	314.541	302.055	290.811	286.490	227.809	287.516	159.674	126.776	179.513	115.962	106.221	104.813	104.335	116.487	128.089	132.888	190.351	133.915	44.345
12.000	242.300	309.910	230.578	299.763	311.724	312.894	314.374	299.262	290.978	237.931	226.782	302.962	174.810	109.731	189.325	118.636	107.057	105.672	104.598	118.922	127.707	179.752	191.593	117.537	49.128
13.000	268.609	318.767	234.111	295.753	310.650	312.130	313.920	296.206	291.193	230.769	225.780	313.658	148.310	100.563	183.929	122.790	108.083	106.794	105.075	122.288	127.612	185.839	192.572	108.060	44.255
14.000	288.710	324.186	248.698	290.262	308.883	310.721	313.610	292.792	290.739	249.701	224.896	319.435	129.665	95.598	168.364	128.018	109.301	107.892	105.648	125.559	128.089	167.791	193.264	102.473	34.239
15.000	302.557	327.839	261.327	283.840	307.689	309.122	312.440	288.782	289.760	264.120	224.323	323.255	115.914	92.470	155.066	134.798	110.877	109.444	106.556	129.665	128.877	154.422	193.932	97.555	29.185
16.000	312.130	330.059	270.781	276.702	305.994	307.188	311.628	284.771	289.307	275.365	224.061	326.764	106.699	89.964	144.610	141.888	112.667	111.211	107.367	134.392	129.665	142.939	194.458	95.454	36.134
17.000	318.647	331.634	278.850	268.943	304.108	305.660	310.268	279.161	288.638	284.413	223.440	328.149	99.990	88.292	135.586	149.934	114.505	113.169	108.728	139.859	130.596	133.771	194.577	93.067	48.993
18.000	323.470	332.279	284.317	261.017	301.960	303.368	309.170	273.288	286.919	290.954	222.843	328.961	95.908	86.812	129.808	157.621	117.012	115.484	110.399	145.804	131.909	127.158	195.532	91.993	54.001
19.000	325.666	333.592	288.400	252.900	298.976	300.599	306.806	266.364	285.654	295.729	223.559	331.276	92.375	86.526	123.888	165.618	119.758	117.872	112.118	152.345	132.960	122.097	195.436	89.534	46.466
20.000	328.244	334.810	293.007	245.022	296.397	297.782	304.156	259.393	284.174	300.480	222.628	331.611	89.820	85.451	119.901	173.282	122.622	120.808	114.434	159.459	134.678	117.537	195.818	89.200	34.148
21.000	329.987	334.762	296.278	238.934	293.055	294.249	301.291	252.542	282.694	304.252	222.915	332.231	88.841	85.762	116.845	181.184	125.941	124.270	117.513	166.932	135.896	114.386	195.460	89.558	27.787
22.000	331.802	334.690	298.808	231.748	289.474	290.644	297.830	245.786	281.715	306.806	222.628	332.709	87.242	84.497	114.887	188.298	129.665	127.922	121.190	173.974	137.591	110.924	195.580	88.507	34.148
23.000	332.494	335.192	300.790	226.448	285.606	286.991	293.867	239.173	279.972	309.599	222.533	332.446	86.836	84.735	112.405	193.837	133.843	131.694	125.392	181.088	138.928	108.227	195.795	88.388	47.233
24.000	332.852	335.287	302.413	224.634	281.333	283.315	289.331	232.989	278.850	312.034	222.700	333.377	86.263	84.568	110.781	194.577	137.925	135.586	130.214	187.009	140.504	105.983	195.890	86.955	54.587
25.000	334.022	335.860	304.156	226.902	277.084	278.946	284.222	228.048	276.654	313.538	223.010	333.473	86.072	84.186	109.444	191.044	142.055	139.286	134.798	192.046	142.199	104.646	195.651	87.815	49.263
26.000	333.998	335.836	305.469	227.498	273.861	277.657	280.832	227.188	276.129	313.634	222.963	333.306	85.762	84.115	108.609	190.495	145.398	141.124	138.522	193.168	142.986	104.168	195.842	87.505	35.998
27.000	333.807	336.194	304.705	227.045	272.810	277.824	279.734	227.594	276.153	313.944	222.700	333.449	85.380	84.878	108.991	190.686	146.878	141.029	139.549	192.882	142.772	104.884	195.842	87.648	27.606
28.000	334.046	335.956	305.708	226.878	272.667	278.421	279.161	227.928	276.344	313.825	222.748	333.640	85.762	83.947	108.847	191.139	147.236	140.432	139.955	192.333	142.604	105.266	196.224	86.526	31.847
29.000	333.974	336.648	305.421	226.758	272.404	278.707	279.017	228.430	276.917	313.395	222.819	333.449	85.523	83.661	109.110	191.402	147.355	140.241	140.289	192.023	142.533	105.314	196.153	86.908	44.616
30.000	335.001	335.741	305.517	229.122	271.354	277.275	277.394	227.236	276.129	314.637	222.748	333.377	85.165	84.473	108.752	189.062	148.430	141.530	141.769	192.930	143.010	104.479	195.986	85.881	54.362
31.000	334.881	335.597	306.543	232.846	268.322	273.694	273.598	224.610	274.601	315.782	222.986	333.711	84.210	84.210	107.869	184.383	151.605	145.111	145.517	194.959	144.299	102.736	195.938	87.170	50.888
32.000	335.024	336.147	307.809	237.478	263.882	269.826	268.991	224.061	273.574	315.520	222.891	334.619	85.666	84.091	107.534	179.775	155.305	148.979	150.459	194.577	145.589	102.354	195.699	86.884	39.202
33.000	333.520	335.645	307.713	240.247	260.372	267.677	265.624	224.395	273.550	314.684	222.986	333.258	86.526	83.804	107.248	177.293	158.982	151.294	153.730	194.887	145.254	104.502	196.153	87.791	28.554
34.000	332.327	335.430	308.501	241.011	258.940	267.773	265.099	226.997	275.365	311.056	222.915	331.443	87.075	84.544	106.269	176.982	161.035	151.080	154.255	192.930	143.368	107.678	195.651	88.412	30.088
35.000	330.465	335.717	308.811	240.151	258.415	269.014	266.555	232.870	277.561	306.806	222.939	330.154	88.770	84.043	106.961	177.746	161.154	149.695	152.369	186.937	141.196	112.118	195.365	89.009	41.548
36.000	329.557	335.096	308.286	237.955	259.680	271.115	269.850	239.769	280.330	300.050	223.249	328.674	90.513	84.520	107.415	179.561	159.531	147.570	149.719	179.943	138.880	118.468	194.840	90.369	52.467
37.000	327.194	335.311	308.740	234.851	262.449	273.717	273.240	247.528	281.715	292.745	224.013	327.194	92.232	85.237	107.081	182.449	157.048	144.992	146.114	171.802	137.042	126.538	194.290	92.995	51.925
38.000	325.045	334.189	308.000	231.270	265.051	276.702	276.869	254.475	283.553	283.983	224.443	324.090	94.977	85.213	107.654	186.245	154.446	142.175	141.912	164.592	135.228	135.442	193.813	95.454	40.871
39.000	321.631	332.900	308.024	227.164	267.773	279.256	280.712	260.420	285.368	274.028	224.992	320.390	98.486	86.096	107.558	190.399	151.127	139.429	138.307	158.194	133.771	145.804	193.359	98.916	30.088
40.000	318.003	332.112	307.666	224.013	271.569	281.954	284.866	266.651	286.251	262.974	226.018	317.072	101.829	86.621	108.251	194.362	147.570	136.684	134.392	152.154	132.602	156.021	192.691	101.662	30.584
41.000	312.536	331.825	306.472	222.867	274.243	284.580	288.256	271.282	287.182	250.966	226.042	314.064	106.699	87.528	108.871	196.463	144.204	133.915	130.405	147.284	131.766	167.934	192.452	105.147	40.375
42.000	306.687	330.703	306.090	225.589	278.039	287.134	291.861	275.651	287.755	238.647	226.544	310.029	112.858	88.245	109.611	193.980	140.933	131.623	127.636	143.368	131.145	180.277	192.190	109.588	49.805
43.000	299.190	330.321	304.347	230.077	281.190	289.737	294.893	279.065	288.018	226.615	226.830	306.448	121.071	89.152	110.781	189.014	137.830	129.044	124.485	139.883	130.596	192.333	191.712	113.694	50.346
44.000	290.238	329.199	303.106	235.233	284.222	292.076	297.567	281.978	288.543	218.450	227.021	301.984	129.570	89.964	111.879	183.452	134.869	127.230	121.763	136.708	130.334	200.856	191.473	117.561	42.044
45.000	280.474	328.817	302.079	240.486	287.039	293.986	299.477	284.150	288.662	226.806	227.498	297.830	139.859	90.656	113.360	177.842	131.790	124.795	119.471	134.297	130.095	191.832	191.211	122.312	33.381
46.000	268.919	327.648	299.620	245.857	289.307	296.302	301.864	286.609	288.853	236.356	227.570	294.129	150.769	91.181	115.102	172.208	129.474	122.742	117.132	131.909	129.880	182.234	191.020	125.989	32.163
47.000	257.746	326.406	298.259	251.348	291.718	297.591	303.440	288.519	289.378	244.878	227.857	290.429	161.393	93.186	116.654	167.242	126.848	120.569	115.317	130.166	129.713	174.022	190.709	129.761	38.480
48.000	247.099	325.260	295.920	256.409	293.652	299.358	305.087	290.071	289.331	252.064	227.928	286.156	172.399	94.476	119.041	162.443	125.105	119.161	113.980	128.662	129.761	167.003	190.638	132.983	46.782
49.000	238.170	325.045	293.103	261.208	296.087	301.411	306.400	291.193	289.569	258.773	227.642	283.673	181.327	95.335	121.429	157.406	122.766	117.203	112.906	127.254	129.498	160.295	190.375	135.848	48.271
50.000	230.793	323.350	290.477	265.863	297.806	303.368	307.522	292.601	289.641	265.099	228.215	279.829	189.158	96.696	124.365	152.703	120.975	115.341	111.641	125.989	129.450	153.968	190.208	140.146	42.947
51.000	224.777	322.730	287.134	270.304	299.525	305.087	308.501	293.795	289.569	269.826	227.857	276.511	194.935	97.603	127.994	148.430	119.280	113.980	110.733	124.914	129.426	149.026	190.065	143.559	36.179
52.000	220.599	321.202	283.529	273.694	300.671	305.875	309.146	294.583	289.450	273.885	228.310	273.741	199.304	98.701	132.005	144.490	117.561	112.476	109.659	124.007	129.307	145.111	189.969	146.520	34.239
53.000	220.217	320.199	279.184	276.893	302.103	306.973	310.292	295.490	289.474	276.893	228.573	270.781	200.092	99.776	135.657	141.435	116.368	111.569	109.015	123.124	129.188	141.888	189.826	149.194	38.299
54.000	224.323	319.340	274.840	279.781	303.368	308.024	310.674	296.373	289.307	279.495	228.453	268.036	195.532	100.635	140.026	138.665	115.341	110.566	108.394	122.503	129.211	139.023	189.659	151.891	44.616
55.000	230.960	318.098	270.709	282.216	304.323	309.002	311.342	296.899	289.522	281.811	228.477	265.147	188.943	101.996	144.681	136.541	114.267	109.731	107.797	121.835	129.259	137.042	189.683	154.446	46.105
56.000	237.048	317.477	266.579	284.150	305.111	309.623	311.509	297.257	289.355	284.055	228.406	262.974	182.974	102.807	149.408	134.440	113.550	109.206	107.415	121.238	129.235	134.965	189.635	156.690	42.811
57.000	242.467	315.902	262.115	286.227	306.114	310.268	312.082	297.925	289.689	285.702	228.740	260.778	176.934	103.906	153.825	132.602	112.715	108.513	107.176	120.832	129.259	133.485	189.611	158.982	38.390
58.000	248.101	314.828	257.985	287.636	306.711	310.697	311.939	298.045	289.928	287.134	228.859	258.486	171.491	105.099	157.955	131.097	112.070	108.036	106.914	120.283	129.211	131.790	189.587	161.226	35.728
59.000	252.613	313.538	254.070	289.307	307.236	310.721	312.369	299.023	289.760	288.400	229.122	256.003	166.717	105.959	162.252	129.402	111.521	107.678	106.556	119.972	129.188	130.429	189.468	163.780	38.435
60.000	256.576	312.846	249.725	290.238	307.427	311.223	312.560	299.190	289.999	289.904	228.692	254.189	163.088	107.105	166.382	128.161	110.829	107.463	106.532	119.853	129.211	129.259	189.325	165.523	43.127
61.000	260.515	311.390	246.502	291.264	308.071	311.461	313.204	299.334	290.357	290.763	229.384	252.351	159.507	108.227	170.202	127.254	110.590	107.129	106.126	119.376	129.092	128.448	189.325	167.504	44.797
62.000	263.285	311.032	242.945	292.745	308.620	311.963	313.085	299.740	289.808	291.264	229.002	250.536	156.451	109.349	173.974	126.227	110.160	107.009	106.174	119.065	129.068	127.540	189.325	169.271	43.082
63.000	265.887	309.361	240.175	293.103	308.859	312.178	313.180	300.002	290.190	292.363	229.074	248.865	153.825	110.304	176.839	125.248	109.922	106.651	105.839	118.779	128.925	126.681	189.134	170.895	39.472
64.000	268.752	308.835	237.430	294.058	309.384	312.607	313.705	300.265	289.880	292.864	228.859	247.051	151.390	111.450	180.038	124.676	109.516	106.460	105.720	118.636	129.188	126.084	189.253	172.518	37.081
65.000	270.399	307.260	235.114	295.013	309.552	312.607	313.586	300.336	289.593	293.413	229.193	246.096	149.289	112.428	182.736	123.935	109.038	106.197	105.553	118.445	128.997	125.678	189.301	173.903	38.435
66.000	272.404	306.066	232.774	295.514	309.910	312.846	313.467	300.503	289.760	293.843	228.788	244.496	147.117	114.028	184.980	123.315	108.895	106.150	105.505	118.158	128.973	124.795	189.373	175.263	41.413
67.000	274.028	305.159	231.127	296.015	310.005	312.894	313.801	300.766	289.951	294.607	228.907	243.159	145.541	115.126	187.128	122.646	108.704	105.983	105.434	118.134	129.188	124.461	189.229	176.529	44.436
68.000	275.771	303.535	229.217	296.708	310.244	312.870	313.658	300.981	289.665	295.299	229.050	242.085	143.798	116.224	189.014	122.312	108.394	105.792	105.362	117.919	128.925	124.055	189.086	177.794	43.217
69.000	277.513	302.389	228.071	296.827	310.101	313.037	314.040	301.172	289.713	295.060	229.313	240.868	142.509	117.585	190.877	121.906	108.585	105.887	105.314	117.681	129.020	123.506	189.158	179.322	39.969
70.000	278.397	301.363	227.116	297.734	310.554	313.252	313.944	301.172	289.474	295.442	229.146	239.841	141.268	118.779	192.046	121.381	108.251	105.696	105.219	117.513	129.092	123.243	189.134	180.134	38.344
71.000	279.495	299.692	225.827	297.686	310.697	313.228	313.849	300.862	289.928	296.135	229.313	238.719	139.955	120.068	193.192	120.904	108.179	105.577	105.195	117.657	129.140	122.909	189.110	181.208	38.525
72.000	280.856	298.713	225.350	297.710	310.626	313.228	314.040	301.387	289.928	296.636	229.074	237.358	138.928	121.285	194.267	120.760	108.083	105.505	105.004	117.370	129.068	122.599	189.205	182.067	40.646
73.000	282.049	297.543	224.801	298.164	310.650	313.467	314.231	301.458	290.047	296.445	229.337	236.594	137.973	122.622	194.816	120.331	107.869	105.529	105.075	117.275	128.973	122.312	188.943	183.094	43.217
74.000	283.052	296.254	224.729	298.737	311.032	313.634	314.446	301.840	290.023	296.875	229.289	235.854	137.090	123.744	195.365	120.140	107.869	105.410	104.908	117.179	129.020	121.978	189.014	183.786	43.037
75.000	283.864	295.227	224.801	298.641	311.008	313.491	314.398	301.769	289.880	297.066	229.480	235.496	136.230	124.867	195.795	119.829	107.725	105.338	104.884	117.036	129.044	121.620	188.967	184.669	40.510
76.000	284.246	293.938	224.825	298.999	311.247	313.371	314.135	301.864	290.166	297.424	229.265	234.589	135.204	126.180	195.747	119.519	107.654	105.314	104.884	117.012	129.068	121.381	189.038	185.290	39.157
77.000	285.296	292.434	224.968	299.167	311.342	313.873	314.422	301.984	289.951	297.997	229.384	233.610	134.678	127.087	195.604	119.232	107.463	105.195	104.932	116.917	129.140	121.166	188.943	186.078	38.751
78.000	285.917	291.957	225.421	299.644	311.294	313.347	314.135	301.840	289.975	298.212	229.074	232.894	133.747	128.257	195.580	119.041	107.439	105.147	104.717	116.845	128.997	120.856	188.919	186.603	40.194
79.000	286.203	290.500	225.971	299.740	311.270	313.443	314.183	301.793	289.832	297.758	229.289	232.321	133.007	129.474	195.222	118.850	107.367	105.123	104.765	116.773	129.092	120.713	188.919	187.415	42.495
80.000	287.278	289.593	225.636	299.525	311.294	313.825	314.398	302.079	290.190	298.808	229.074	231.915	132.578	130.620	194.792	118.659	107.200	105.123	104.861	116.845	128.973	120.545	188.871	187.773	42.676
81.000	288.018	287.994	226.185	300.169	311.652	313.777	314.565	302.079	290.286	298.976	229.671	231.127	131.694	131.742	194.434	118.468	107.296	105.123	104.789	116.654	128.973	120.354	188.823	188.465	40.646
82.000	288.185	286.609	226.567	300.241	311.581	314.040	314.374	302.175	290.119	298.522	229.575	230.865	131.193	133.174	193.980	118.325	107.296	105.052	104.741	116.606	128.997	120.211	188.847	189.253	39.247
83.000	289.235	285.654	226.949	300.193	311.939	314.159	314.756	302.342	289.999	298.761	229.146	230.316	130.811	134.297	193.574	118.134	107.200	105.123	104.717	116.630	128.901	119.949	188.800	189.540	39.021
84.000	289.259	284.747	227.331	300.384	311.414	313.682	314.517	302.413	290.071	299.023	229.361	229.814	130.262	135.538	193.168	118.206	107.105	105.052	104.646	116.487	128.853	119.781	188.728	189.946	39.788
85.000	290.190	283.028	227.833	300.575	312.010	314.111	314.637	302.413	289.951	299.119	229.313	228.979	129.665	136.779	192.763	118.039	107.057	104.932	104.598	116.463	129.068	119.877	188.895	190.471	41.954
86.000	290.691	281.787	228.453	301.172	311.748	314.040	314.398	302.151	289.832	299.023	229.480	228.597	129.211	138.021	191.999	117.633	106.938	104.980	104.741	116.487	128.973	119.590	188.728	191.020	42.495
87.000	291.288	280.259	228.788	300.838	311.724	313.896	314.684	302.509	290.214	299.501	229.361	228.262	128.710	139.405	191.545	117.728	107.105	105.004	104.598	116.368	129.044	119.376	188.823	191.450	40.871
88.000	291.814	279.352	229.050	300.742	311.676	314.135	314.660	302.700	290.357	299.572	229.337	227.713	128.185	140.551	191.115	117.466	106.961	104.932	104.502	116.368	128.949	119.280	188.752	191.784	39.518
89.000	291.742	277.322	230.029	301.602	312.034	313.944	314.469	302.389	289.904	299.453	229.886	227.427	127.970	141.912	190.662	117.251	106.747	104.884	104.550	116.296	128.925	119.209	188.776	192.142	39.157
