-----------------------------------------------------
BloodHound 307 VOC Analyser V2017.1
RoboScientific Ltd 
Espace North
Wisbech Road
Littleport
Cambridgeshire, UK
CB6 1RA 
-----------------------------------------------------
Date = 21/04/2022
Time = 11:12:08
Data is protected by RoboScientific Limited
-----------------------------------------------------
Name of the experiment = "44b_Day 25"
-----------------------------------------------------
Repeat No. = 3/4
-----------------------------------------------------
Experimental Time (in sec) and Flow Profile :
-----------------------------------------------------
Baseline = 2.00
Absorb = 4.00
Pause = 1.00
Desorb = 5.00
Flush = 20.00
Wait = 5.00
Higher Flow (V) = 4.00
Medium Flow (V) = 3.00
Low Flow (V) = 1.00
-----------------------------------------------------
Total Profile Time = 37 in sec
-----------------------------------------------------
Acquired data point per second = 4
--------------------------------------------------
Total data point stored  = 128
-----------------------------------------------------
Acquired sensor responses from 24 sensors
-----------------------------------------------------

Data Points	 Sen-1	 Sen-2	 Sen-3	 Sen-4	 Sen-5	 Sen-6	 Sen-7	 Sen-8	 Sen-9	 Sen-10	 Sen-11	 Sen-12	 Sen-13	 Sen-14	 Sen-15	 Sen-16	 Sen-17	 Sen-18	 Sen-19	 Sen-20	 Sen-21	 Sen-22	 Sen-23	 Sen-24	Humidity (%r.h.)
0.000	301.817	258.033	250.751	305.374	314.040	315.233	315.377	302.485	289.760	303.512	229.957	219.286	117.418	161.130	168.770	113.407	104.932	103.906	103.977	116.009	129.092	115.436	188.442	200.283	39.924
1.000	302.270	257.173	250.775	305.254	314.159	314.875	315.377	302.771	289.784	303.464	229.886	219.167	117.346	162.276	168.245	113.383	104.861	103.834	103.882	116.057	129.188	115.413	188.561	200.426	39.743
2.000	302.819	255.478	251.085	305.063	313.944	315.042	315.544	303.082	289.832	303.631	229.910	218.689	116.917	163.422	167.934	113.383	104.789	103.882	103.906	116.033	129.068	115.102	188.394	200.736	40.059
3.000	303.082	254.452	251.826	305.398	313.849	315.019	315.424	302.962	289.737	303.941	229.671	218.976	116.582	164.783	167.528	113.169	104.908	104.001	103.929	115.842	129.092	114.983	188.322	200.808	40.510
4.000	302.676	253.568	252.398	305.612	313.968	315.210	315.448	302.867	289.665	303.583	229.957	218.761	116.654	165.547	167.027	113.264	104.717	103.834	103.858	115.842	129.044	115.031	188.322	200.856	40.239
5.000	302.557	253.330	252.613	305.684	314.159	315.257	315.233	302.891	289.856	303.965	229.981	218.809	116.964	165.786	166.669	113.169	104.741	103.906	103.929	115.986	129.164	115.126	188.442	200.951	40.239
6.000	302.676	253.449	252.804	305.230	313.705	315.138	315.353	302.939	290.023	304.180	229.981	218.665	116.726	166.048	166.478	113.049	104.861	103.953	103.906	115.890	129.188	114.959	188.442	200.880	39.969
7.000	302.962	253.019	253.162	305.469	313.944	314.947	315.353	303.368	290.095	303.798	229.575	218.761	116.821	166.311	166.311	113.169	104.956	103.834	103.810	115.938	129.188	115.007	188.561	200.927	39.924
8.000	303.201	252.303	253.091	305.326	313.944	315.138	315.281	302.939	290.142	304.180	229.743	218.713	116.702	166.454	166.120	113.025	104.693	103.929	103.906	115.938	129.188	115.102	188.489	200.856	40.194
9.000	302.819	252.016	253.473	305.374	313.992	314.923	315.114	302.604	289.856	304.252	229.719	218.713	116.630	166.764	166.144	113.097	104.670	103.929	103.810	115.842	129.020	114.911	188.298	200.927	40.465
10.000	300.360	276.893	252.804	305.302	313.825	315.305	315.591	302.771	289.928	302.891	229.289	247.982	119.304	140.671	166.239	113.192	104.670	103.786	103.953	116.105	129.020	115.890	188.752	169.701	40.330
11.000	261.256	300.647	249.605	304.228	313.729	314.732	315.042	301.626	290.500	288.328	227.904	280.354	155.854	117.991	168.937	114.195	105.099	104.120	103.977	116.964	128.424	129.092	190.160	138.283	42.586
12.000	237.645	313.252	241.035	301.984	313.443	314.159	314.780	299.214	290.691	246.860	226.567	297.519	179.370	106.006	178.415	116.487	105.386	104.598	104.240	119.137	128.137	169.629	191.497	122.002	36.901
13.000	263.452	319.626	231.199	298.928	312.822	313.514	314.708	296.922	291.073	221.220	225.612	308.191	155.783	99.680	189.946	119.399	105.768	105.219	104.502	121.930	128.113	197.394	192.333	112.739	31.080
14.000	282.694	324.807	235.830	295.204	312.178	312.536	314.111	293.986	290.524	235.687	225.374	314.947	136.087	95.431	182.974	123.601	106.388	106.197	104.980	124.914	128.424	182.640	192.977	105.983	35.953
15.000	297.304	327.242	246.454	290.071	311.509	311.414	313.562	290.930	289.999	250.512	224.323	319.459	121.524	92.804	170.489	128.567	107.129	107.033	105.481	128.113	128.997	167.695	193.479	101.638	47.549
16.000	306.830	328.698	255.239	284.819	311.056	310.602	313.133	287.373	288.901	261.375	224.061	321.608	111.163	90.441	158.982	134.082	107.773	108.322	106.006	131.336	129.784	155.902	194.004	98.343	52.873
17.000	314.947	329.462	263.691	278.468	309.886	308.788	311.987	283.386	288.567	271.664	224.228	323.804	103.882	89.176	149.838	139.955	108.633	109.707	106.675	135.419	130.381	146.424	194.577	96.672	45.248
18.000	320.080	330.894	270.709	271.664	308.955	307.045	311.223	278.826	287.182	279.184	223.822	325.260	99.394	87.982	141.244	146.544	109.731	111.354	107.654	139.883	131.503	138.809	194.601	95.025	33.968
19.000	323.494	332.255	276.797	265.242	307.522	305.326	310.220	273.694	286.299	285.296	223.488	327.003	95.836	87.528	135.610	152.989	110.948	113.360	108.967	145.278	132.769	133.413	194.935	93.067	28.102
20.000	326.335	332.733	281.381	259.035	306.615	302.843	308.238	268.370	285.750	290.214	223.703	328.555	92.781	86.908	130.190	159.531	112.476	115.675	110.614	150.745	133.389	128.567	195.245	92.184	35.051
21.000	328.340	332.422	284.771	252.685	305.016	300.312	306.639	262.688	284.461	294.296	222.700	328.603	91.682	86.192	126.180	166.335	113.574	118.301	112.309	156.236	134.511	124.103	195.269	91.706	47.955
22.000	328.961	333.473	287.469	246.335	303.488	297.448	304.729	257.102	282.933	297.495	222.676	328.937	89.916	86.884	122.981	172.757	115.365	121.047	114.482	161.727	135.920	120.617	195.269	90.298	53.911
23.000	331.229	333.449	289.975	239.865	301.506	294.344	302.318	251.563	282.002	300.766	223.010	329.916	88.507	86.406	119.304	179.179	116.964	123.912	116.535	167.624	136.803	117.418	195.484	90.107	45.067
24.000	332.064	333.759	292.601	234.183	299.358	291.479	299.525	245.929	280.617	303.273	223.010	330.632	87.433	86.001	116.893	185.219	118.946	126.872	119.376	173.353	138.116	114.959	195.890	90.465	32.118
25.000	332.112	334.189	294.535	229.504	298.188	288.758	296.421	240.820	279.662	305.636	223.034	330.751	87.505	85.237	115.484	190.375	121.047	129.952	122.646	178.940	139.501	113.240	195.556	89.486	28.193
26.000	332.327	334.046	294.941	228.262	296.660	287.755	294.320	239.316	279.399	305.230	222.581	330.130	87.433	85.308	114.983	191.975	122.431	130.978	124.795	180.563	139.835	113.216	195.651	89.582	37.848
27.000	330.918	335.024	295.466	228.334	296.135	287.851	293.962	240.008	278.993	304.872	222.843	330.942	86.932	85.929	114.314	192.023	122.909	130.716	125.463	179.990	139.716	113.885	195.651	88.865	50.707
28.000	333.019	334.452	295.800	228.501	296.159	288.543	293.341	240.271	279.328	304.586	223.034	330.274	87.337	85.714	113.980	191.879	122.885	130.429	125.750	179.513	139.716	114.410	195.890	89.677	53.324
29.000	332.876	334.380	295.896	228.764	295.395	288.113	293.198	240.677	279.805	303.822	223.058	331.038	87.051	85.786	114.887	191.664	123.052	130.286	125.821	178.868	139.477	114.887	195.723	89.104	42.766
30.000	332.184	334.380	296.087	227.546	295.156	286.872	291.957	238.934	278.659	305.135	222.963	332.112	86.550	85.929	114.004	192.476	123.625	131.479	127.111	180.301	139.811	113.264	195.699	89.438	30.674
31.000	332.756	334.738	297.304	225.660	293.509	284.389	289.355	235.424	278.158	308.071	223.082	331.372	85.714	85.810	112.930	193.694	125.010	134.273	129.808	184.431	141.244	110.686	195.580	88.531	29.140
32.000	333.855	334.380	297.973	225.469	292.196	281.596	286.657	230.745	276.200	309.504	222.772	331.658	85.714	85.308	112.046	193.359	127.158	137.114	132.673	189.110	142.533	108.895	195.747	88.698	38.751
33.000	333.783	335.645	299.095	226.949	289.307	278.421	283.315	227.642	274.959	310.387	222.557	331.921	85.810	85.356	111.187	190.662	129.450	140.217	135.968	192.810	143.655	107.773	195.317	88.794	51.564
34.000	333.234	334.762	299.501	228.955	286.824	276.439	280.378	227.976	274.935	308.931	223.130	331.252	86.693	86.359	110.447	188.871	131.312	141.864	138.785	191.903	143.655	109.850	195.795	88.555	52.738
35.000	331.921	334.595	300.480	229.384	285.177	276.344	280.020	232.560	276.439	305.111	222.652	329.271	88.555	86.383	110.328	188.203	132.649	142.032	139.477	187.128	142.318	113.598	195.604	89.653	41.277
36.000	330.560	334.093	300.432	228.692	285.415	277.657	280.832	238.862	278.444	298.713	223.034	327.671	90.011	85.810	109.922	189.110	132.792	140.695	138.188	180.157	140.360	120.116	195.222	91.086	29.952
37.000	327.862	334.356	300.121	226.854	286.275	279.423	283.410	245.929	280.211	291.097	223.440	326.717	91.659	86.263	110.471	191.020	132.148	139.143	135.920	172.709	138.307	127.898	195.054	92.924	29.952
38.000	325.069	333.282	299.811	224.777	287.612	281.548	285.630	253.162	281.978	281.763	223.965	323.756	93.879	87.194	110.256	193.121	130.525	136.708	133.198	165.380	136.588	136.899	194.219	95.168	40.961
39.000	323.064	332.255	299.859	224.156	289.331	283.768	288.805	259.895	283.482	270.518	224.538	321.082	96.648	87.337	111.474	194.959	129.020	134.869	130.310	159.316	135.228	147.833	193.694	97.603	51.835
40.000	319.602	332.422	298.999	225.660	291.384	286.633	291.599	265.624	285.081	259.107	225.421	318.241	100.277	87.481	111.664	193.956	127.134	132.434	127.516	153.180	133.915	159.937	193.264	101.327	50.617
41.000	316.069	330.489	298.689	229.337	292.840	288.710	294.440	270.877	286.299	246.263	225.636	314.231	103.977	88.818	113.049	190.113	125.296	129.999	124.747	148.310	133.103	173.162	192.667	104.168	40.104
42.000	311.175	330.799	297.663	234.111	295.180	290.978	296.684	274.601	286.752	233.395	225.803	310.674	109.158	89.295	114.147	185.004	123.482	127.660	122.002	144.037	132.172	186.269	192.309	108.776	30.674
43.000	304.466	330.011	295.848	239.364	296.517	292.983	299.525	278.373	287.349	221.077	226.185	306.352	114.816	89.868	114.673	179.561	121.667	125.750	119.686	140.241	131.527	198.253	191.832	112.691	32.073
44.000	297.877	328.961	294.750	244.520	298.331	295.060	301.626	281.548	287.851	223.655	226.353	302.413	121.763	90.751	116.750	173.807	120.092	123.649	117.466	137.352	130.930	195.078	191.712	116.941	42.135
45.000	289.331	328.149	292.840	249.963	299.978	297.281	303.583	284.055	288.233	233.538	227.093	298.283	129.952	91.802	118.707	168.579	118.779	121.787	115.580	134.822	130.716	185.386	191.259	121.190	49.850
46.000	280.569	326.931	291.527	255.335	301.936	298.952	305.111	286.299	288.137	242.921	227.164	294.535	139.740	92.900	120.331	163.518	117.203	119.805	113.932	132.482	130.334	176.194	191.068	125.439	47.188
47.000	270.184	325.953	289.378	260.157	302.771	300.647	306.520	288.209	288.805	250.990	227.116	290.596	150.268	93.401	123.219	158.504	115.962	117.991	112.500	130.596	130.214	168.006	191.020	129.713	38.931
48.000	259.823	325.117	286.609	264.311	303.750	302.533	307.976	289.593	288.471	257.770	227.761	286.323	160.056	94.213	125.702	153.873	114.911	116.224	111.259	128.901	129.904	161.154	190.781	133.580	32.569
49.000	250.680	323.804	284.819	268.680	305.111	304.084	308.668	290.906	288.853	263.905	227.857	282.264	169.176	95.622	128.615	149.790	113.932	114.744	110.137	127.516	129.856	154.732	190.375	136.779	35.728
50.000	240.844	322.491	280.569	273.526	306.281	305.970	309.575	292.458	289.259	269.778	227.976	278.301	178.415	96.457	132.124	145.398	112.739	112.763	109.301	126.347	129.999	149.050	190.375	140.790	43.262
51.000	232.894	321.655	276.224	277.179	307.045	307.427	310.339	293.198	289.044	274.410	227.904	275.054	186.341	97.675	136.278	141.697	112.023	111.426	108.537	125.225	129.975	144.586	190.328	144.825	47.233
52.000	227.284	321.273	272.667	280.044	307.522	308.597	311.008	294.368	289.307	278.253	228.286	270.805	192.285	98.988	140.695	138.689	110.877	110.041	107.869	124.341	129.832	140.909	190.065	148.406	44.165
53.000	222.461	319.745	268.227	282.598	307.976	309.289	311.533	295.418	289.068	281.047	228.071	268.059	197.275	99.847	145.636	135.896	110.590	109.397	107.415	123.410	129.808	137.925	189.946	151.533	38.480
54.000	219.596	318.600	263.714	285.081	309.170	310.220	312.106	295.991	289.187	283.052	228.788	265.028	200.569	100.850	150.817	133.294	109.588	108.322	106.794	122.694	129.665	135.729	189.802	154.637	35.006
55.000	221.530	317.621	258.940	287.110	309.337	310.888	312.703	296.612	289.259	285.224	228.501	262.187	198.110	101.900	155.210	131.503	109.253	107.797	106.508	122.169	129.617	133.556	189.731	157.167	37.938
56.000	227.212	317.024	254.762	288.758	309.933	311.605	313.109	297.328	289.498	286.943	228.501	260.110	192.667	102.521	160.271	129.784	108.728	107.200	106.341	121.715	129.808	131.838	189.635	159.602	43.623
57.000	233.538	315.735	249.916	290.381	310.292	312.010	313.324	297.639	289.259	288.519	228.525	257.531	186.341	103.691	165.189	128.400	108.513	106.794	106.006	121.071	129.474	130.548	189.611	161.918	45.248
58.000	239.531	315.162	246.335	291.742	310.554	312.416	313.705	298.045	289.546	289.713	228.597	255.550	180.420	104.431	169.558	127.111	108.155	106.412	105.792	120.713	129.641	129.283	189.635	163.876	42.495
59.000	244.305	314.064	243.016	292.745	310.459	312.464	313.682	298.235	289.784	290.954	228.453	253.473	175.072	105.123	173.616	125.845	107.797	106.269	105.625	120.474	129.570	128.137	189.611	165.881	38.796
60.000	249.343	312.918	239.268	293.938	311.270	312.894	313.562	298.546	289.355	291.742	228.477	251.324	170.226	106.293	177.698	124.819	107.415	105.863	105.434	120.187	129.546	127.206	189.468	167.791	36.449
61.000	253.473	312.440	236.308	294.392	311.199	313.013	313.658	299.023	289.737	292.339	228.692	249.963	165.833	107.129	180.754	123.888	107.415	105.815	105.266	119.781	129.593	126.275	189.396	169.605	39.157
62.000	257.269	311.676	233.682	295.275	311.605	313.156	314.255	299.190	289.355	292.983	229.026	248.149	162.228	107.773	183.762	123.076	107.152	105.648	105.195	119.590	129.546	125.654	189.373	171.205	43.308
63.000	260.515	310.697	231.533	296.326	311.772	313.514	314.278	299.596	289.569	293.867	228.979	246.597	159.006	108.465	186.460	122.575	107.009	105.362	105.099	119.423	129.379	124.986	189.301	172.733	44.345
64.000	263.404	310.530	229.838	296.684	312.178	313.920	314.183	299.596	289.569	294.583	229.074	245.427	156.547	109.325	188.991	121.763	106.747	105.219	105.052	119.065	129.402	124.413	189.444	174.237	41.458
65.000	265.982	309.193	228.597	297.448	312.392	313.777	314.159	299.931	289.737	294.941	228.788	243.685	153.825	109.850	190.853	121.285	106.675	105.147	104.837	119.018	129.498	123.816	189.253	175.693	38.751
66.000	268.012	308.334	227.904	297.973	312.225	313.801	314.111	300.098	289.641	295.562	228.979	242.443	151.414	110.972	192.285	120.784	106.556	105.075	104.861	118.779	129.379	123.243	189.373	177.102	37.758
67.000	269.802	307.689	226.997	298.188	312.392	313.849	314.278	299.883	289.617	296.039	229.313	241.464	149.170	111.712	193.288	120.235	106.412	104.861	104.861	118.636	129.307	122.933	189.229	178.104	39.653
68.000	272.404	307.093	227.069	298.952	312.416	313.920	314.278	300.432	289.951	296.421	229.002	239.865	147.642	112.142	193.574	119.781	106.293	104.813	104.837	118.564	129.402	122.503	189.158	179.250	43.172
69.000	274.147	305.851	226.902	299.190	312.846	314.040	314.565	300.026	289.283	296.755	228.859	239.244	146.042	113.169	193.932	119.328	106.365	104.837	104.765	118.349	129.426	122.121	189.182	180.348	43.578
70.000	275.699	305.302	227.403	299.549	312.345	314.278	314.780	300.838	289.665	297.400	229.241	238.242	144.395	114.028	193.765	119.113	106.126	104.765	104.646	118.206	129.402	121.835	189.134	181.423	40.691
71.000	276.582	304.347	227.857	299.859	312.369	314.183	314.684	300.694	289.689	297.472	229.217	237.000	142.915	114.959	193.336	118.731	106.054	104.646	104.550	117.943	129.307	121.715	189.205	182.330	39.021
72.000	277.728	303.440	228.692	299.883	312.249	314.207	314.708	300.814	289.259	297.663	229.313	236.141	141.673	115.723	192.715	118.540	106.126	104.646	104.526	117.943	129.235	121.166	189.062	183.309	38.796
73.000	278.659	302.986	229.265	300.432	312.488	313.944	314.207	300.671	289.928	297.901	229.361	235.305	140.289	116.630	191.975	118.086	106.078	104.670	104.574	117.752	129.235	120.856	189.086	184.049	40.239
74.000	280.139	302.270	229.766	300.289	312.607	314.183	314.732	301.005	289.617	297.949	228.931	234.470	139.477	117.179	191.163	117.967	105.911	104.622	104.479	117.872	129.402	120.713	189.014	184.860	43.037
75.000	281.500	301.745	230.387	301.148	313.085	314.517	314.828	301.172	289.259	298.403	229.313	233.920	138.570	118.039	190.304	117.776	105.815	104.502	104.455	117.633	129.379	120.522	189.086	185.481	42.586
76.000	281.930	300.647	230.769	300.981	312.822	314.446	314.684	301.124	289.689	298.594	229.265	233.180	137.424	118.612	189.611	117.633	105.887	104.407	104.335	117.561	129.211	120.235	189.158	186.174	40.239
77.000	283.028	300.289	231.438	301.554	313.156	314.828	314.732	301.100	289.522	298.617	228.931	232.584	136.636	119.423	188.823	117.370	105.768	104.288	104.311	117.704	129.379	120.140	188.919	186.914	39.247
78.000	283.768	299.190	232.416	301.626	313.109	314.302	314.684	301.100	289.737	298.999	229.289	231.915	135.610	120.116	188.107	117.036	105.696	104.311	104.288	117.537	129.259	119.853	188.967	187.606	38.976
79.000	284.723	298.355	232.846	301.721	312.942	314.398	314.398	300.933	289.569	299.358	229.623	231.151	134.631	120.975	187.081	116.869	105.601	104.311	104.311	117.418	129.188	119.734	188.943	188.394	40.736
80.000	286.442	297.066	233.825	301.673	313.395	314.637	315.210	301.363	289.450	299.501	229.337	229.719	133.198	121.978	186.412	116.845	105.529	104.216	104.288	117.442	129.617	119.471	188.967	189.444	42.631
81.000	287.588	296.445	234.517	301.673	312.989	314.565	314.684	301.554	289.641	299.883	229.480	228.382	132.267	123.195	185.410	116.535	105.553	104.288	104.311	117.275	129.235	118.874	188.847	190.757	41.728
82.000	288.614	295.060	235.639	302.294	313.228	314.517	314.804	301.602	289.808	300.647	229.575	227.570	131.193	124.294	184.240	116.320	105.577	104.144	104.288	117.155	129.450	118.659	188.823	191.808	39.879
83.000	288.758	294.129	236.499	302.055	312.918	314.326	314.756	301.411	289.450	300.790	229.337	226.926	130.405	125.487	183.237	116.033	105.553	104.311	104.216	117.132	129.450	118.325	188.847	192.691	39.202
84.000	289.641	292.745	237.454	302.819	313.228	314.660	314.732	301.506	289.760	300.718	229.886	225.875	129.641	126.753	182.330	115.699	105.457	104.216	104.216	117.084	129.307	118.063	188.656	193.479	39.157
85.000	291.026	291.957	238.480	302.676	313.610	315.066	315.210	301.864	289.737	301.124	229.575	224.825	129.188	127.684	181.256	115.747	105.362	104.144	104.288	116.964	129.426	117.872	188.752	194.601	40.916
86.000	290.668	290.882	239.077	303.130	313.443	314.374	314.756	301.840	289.880	300.862	229.647	224.490	128.615	128.567	180.683	115.580	105.338	104.168	104.144	116.988	129.307	117.776	188.752	194.649	41.774
87.000	290.882	290.381	239.769	302.986	313.037	314.780	315.186	302.198	289.808	301.053	229.623	224.705	128.567	129.259	179.919	115.484	105.290	103.977	104.264	116.988	129.426	117.848	188.656	194.625	41.322
88.000	291.336	289.832	240.271	302.962	313.395	314.756	314.923	301.912	289.689	301.315	229.528	224.849	128.424	129.832	179.489	115.317	105.266	104.168	104.240	117.108	129.307	117.824	188.728	194.672	39.879
89.000	291.909	289.307	240.486	302.962	313.347	315.042	315.186	302.151	289.617	300.647	229.575	224.490	128.495	130.143	179.107	115.413	105.219	104.025	104.144	116.893	129.426	117.991	188.728	194.840	39.292
