-----------------------------------------------------
BloodHound 307 VOC Analyser V2017.1
RoboScientific Ltd 
Espace North
Wisbech Road
Littleport
Cambridgeshire, UK
CB6 1RA 
-----------------------------------------------------
Date = 21/04/2022
Time = 11:36:27
Data is protected by RoboScientific Limited
-----------------------------------------------------
Name of the experiment = "44b_Day 33"
-----------------------------------------------------
Repeat No. = 2/4
-----------------------------------------------------
Experimental Time (in sec) and Flow Profile :
-----------------------------------------------------
Baseline = 2.00
Absorb = 4.00
Pause = 1.00
Desorb = 5.00
Flush = 20.00
Wait = 5.00
Higher Flow (V) = 4.00
Medium Flow (V) = 3.00
Low Flow (V) = 1.00
-----------------------------------------------------
Total Profile Time = 37 in sec
-----------------------------------------------------
Acquired data point per second = 4
--------------------------------------------------
Total data point stored  = 128
-----------------------------------------------------
Acquired sensor responses from 24 sensors
-----------------------------------------------------

Data Points	 Sen-1	 Sen-2	 Sen-3	 Sen-4	 Sen-5	 Sen-6	 Sen-7	 Sen-8	 Sen-9	 Sen-10	 Sen-11	 Sen-12	 Sen-13	 Sen-14	 Sen-15	 Sen-16	 Sen-17	 Sen-18	 Sen-19	 Sen-20	 Sen-21	 Sen-22	 Sen-23	 Sen-24	Humidity (%r.h.)
0.000	302.127	258.104	247.648	304.419	313.013	313.968	314.804	303.273	290.477	302.748	228.979	220.909	117.108	161.154	171.658	114.625	105.768	104.741	104.407	115.771	128.782	116.224	189.301	198.564	41.187
1.000	302.580	257.651	247.600	304.347	313.109	314.278	315.090	303.034	290.405	302.962	229.074	220.862	117.036	161.775	171.205	114.458	105.744	104.741	104.288	115.771	128.734	116.320	189.373	198.397	40.465
2.000	302.437	257.842	248.197	304.252	313.276	314.302	315.066	303.010	290.071	302.461	229.504	221.005	117.060	161.966	171.181	114.553	105.839	104.861	104.240	115.723	128.734	116.105	189.420	198.301	39.427
3.000	302.222	257.555	248.435	304.132	312.918	314.278	314.828	303.082	290.310	302.724	228.740	221.053	117.108	162.228	170.895	114.505	105.720	104.598	104.264	115.795	128.853	116.153	189.420	198.397	39.247
4.000	302.915	256.576	248.412	304.275	312.989	314.446	315.066	303.344	290.214	302.557	229.050	221.053	117.084	162.563	170.751	114.458	105.744	104.717	104.192	115.675	128.853	116.081	189.301	198.516	39.653
5.000	302.676	256.075	248.770	304.538	313.037	314.207	314.732	303.273	290.310	302.962	228.955	220.718	116.797	163.398	170.680	114.338	105.696	104.622	104.240	115.723	128.782	115.962	189.349	198.898	40.871
6.000	302.843	255.645	248.507	304.299	313.109	313.968	314.971	303.010	290.119	303.130	228.955	220.408	116.821	163.900	170.298	114.267	105.672	104.598	104.359	115.842	128.758	116.129	189.277	198.779	41.007
7.000	302.533	255.884	249.032	304.180	313.085	313.992	314.804	303.010	290.190	303.082	228.979	220.790	116.845	163.900	170.274	114.195	105.720	104.789	104.240	115.699	128.734	115.986	189.396	198.755	40.555
8.000	302.557	255.836	249.247	304.228	312.965	314.135	314.828	303.106	290.286	302.819	228.931	220.790	116.964	164.043	170.059	114.505	105.696	104.646	104.216	115.723	128.734	116.057	189.420	198.683	39.563
9.000	302.413	255.693	249.152	304.204	313.467	314.255	314.851	302.819	290.262	302.795	228.931	220.790	116.750	163.923	170.035	114.291	105.625	104.765	104.120	115.604	128.853	115.962	189.444	198.540	39.292
10.000	300.790	279.757	248.698	304.156	313.324	314.517	314.851	303.058	290.166	301.936	228.931	253.712	119.137	140.981	170.178	114.529	105.672	104.693	104.097	115.651	128.734	117.084	189.492	167.886	39.563
11.000	265.290	301.888	245.905	302.962	312.631	313.729	314.660	301.912	290.859	288.901	227.618	283.792	156.427	118.182	173.616	115.604	105.959	105.147	104.335	116.988	128.280	131.456	191.020	137.137	42.089
12.000	234.422	313.061	236.952	300.408	311.915	312.655	314.111	299.596	291.097	246.430	225.708	300.217	183.380	106.293	182.043	117.800	106.627	106.102	104.717	119.113	127.898	172.972	192.214	121.023	48.541
13.000	260.587	320.629	228.668	297.066	311.223	311.676	313.753	296.731	291.408	221.435	225.207	309.719	157.096	100.086	192.237	120.975	107.248	106.747	105.147	121.596	127.660	195.675	192.977	110.256	47.233
14.000	280.951	324.592	237.143	292.888	310.626	310.697	313.491	294.177	290.668	238.767	224.753	316.069	136.588	94.953	180.181	125.416	108.012	107.869	105.648	124.532	128.042	178.892	193.885	104.670	37.938
15.000	296.779	327.385	248.865	288.065	309.384	309.361	312.631	291.050	290.142	253.759	223.750	320.581	122.885	92.470	168.030	130.453	109.015	109.038	106.150	127.779	128.615	165.451	194.529	100.850	29.591
16.000	306.520	330.059	259.298	282.384	308.262	307.976	312.130	287.445	289.689	265.290	223.416	323.517	112.619	90.369	156.833	135.968	110.137	110.351	106.866	131.241	129.522	153.013	194.983	97.388	32.073
17.000	314.350	331.587	266.914	276.176	307.307	306.687	311.199	283.840	288.758	274.410	223.368	325.618	104.837	88.650	147.093	142.485	111.545	112.094	107.797	135.108	130.214	143.727	195.198	95.454	42.360
18.000	319.722	332.088	274.219	269.778	305.493	304.657	309.814	278.922	287.922	281.333	223.058	327.504	99.083	87.624	139.405	149.385	113.169	113.885	109.253	140.050	131.074	136.326	195.389	93.377	52.783
19.000	323.517	332.375	279.901	262.855	303.798	302.652	308.215	273.861	287.015	287.588	222.963	328.603	95.884	86.573	133.294	155.448	114.792	115.627	110.614	144.777	132.220	130.381	195.675	92.351	51.519
20.000	326.669	332.924	284.007	256.194	301.960	300.480	306.591	268.346	285.678	292.577	222.294	329.701	92.924	86.335	128.137	162.348	116.750	118.063	112.190	150.530	133.127	125.678	195.914	91.229	40.059
21.000	328.006	334.404	287.755	249.343	300.360	297.806	304.753	262.951	284.628	296.660	222.270	329.343	90.847	85.642	123.673	168.818	118.874	120.545	114.171	156.069	134.392	121.930	195.866	90.966	29.321
22.000	329.772	333.902	291.408	243.327	297.663	295.156	302.389	257.054	283.291	299.692	222.413	331.467	89.438	85.451	120.951	175.693	120.951	123.291	116.654	162.372	135.419	118.301	195.938	89.486	29.862
23.000	330.560	334.642	293.604	237.191	295.609	292.458	299.907	250.871	282.216	302.986	222.151	331.372	89.032	84.950	118.182	182.115	123.577	126.418	119.567	168.412	136.803	114.816	196.200	89.510	40.059
24.000	331.634	334.786	295.920	231.581	292.936	289.474	296.803	245.451	280.832	305.756	222.199	331.802	88.125	84.592	116.296	187.988	126.394	129.522	122.933	174.499	138.045	112.619	196.463	88.221	52.151
25.000	332.470	335.024	297.997	227.331	290.023	286.060	292.792	239.722	280.163	308.024	222.031	331.467	86.812	84.950	113.956	192.500	128.901	132.697	126.084	179.990	139.214	110.972	196.487	88.316	53.008
26.000	332.231	336.003	297.973	225.827	287.874	284.890	290.477	238.385	279.041	307.427	222.270	332.279	86.908	84.926	113.550	193.956	130.906	133.891	128.734	181.661	139.668	110.662	196.081	87.433	41.548
27.000	332.207	335.168	299.214	226.090	287.325	285.344	289.975	238.743	279.113	307.284	222.318	331.802	87.576	84.592	113.360	194.314	131.718	133.795	129.474	181.088	139.716	111.306	196.678	88.555	29.997
28.000	332.231	335.359	298.856	226.209	287.206	285.081	289.235	239.340	279.901	306.591	222.222	332.446	87.385	85.260	113.360	193.885	131.981	133.342	129.784	180.444	139.358	111.951	196.487	88.436	28.824
29.000	332.804	335.645	299.429	226.376	287.731	285.750	288.925	239.626	279.757	306.687	222.294	332.160	87.003	84.687	113.288	194.004	132.148	133.103	130.214	180.134	139.358	112.285	196.367	88.101	38.299
30.000	333.210	335.836	299.716	225.326	286.179	283.792	287.134	237.788	279.256	307.713	222.103	332.136	85.690	85.284	112.548	194.195	133.222	134.607	131.599	181.876	139.931	110.495	196.463	89.056	51.113
31.000	333.831	335.215	300.623	224.514	283.888	280.784	284.604	233.873	278.015	310.077	221.888	332.589	85.451	84.664	111.593	194.649	134.989	137.448	134.726	185.839	141.029	107.940	196.415	87.719	53.685
32.000	334.475	335.979	301.673	225.756	281.333	277.609	281.023	229.337	276.272	312.297	222.127	332.470	86.287	84.449	110.638	192.166	137.878	140.862	138.164	190.184	142.390	106.651	196.367	88.173	42.902
33.000	333.497	336.099	302.246	228.549	277.967	274.028	277.418	226.663	275.293	312.774	222.031	332.756	86.621	83.876	109.755	189.182	141.053	144.347	142.127	193.503	143.846	106.078	196.487	87.887	30.764
34.000	333.258	335.574	303.559	230.387	276.105	272.691	274.243	227.857	275.221	311.008	222.700	332.112	86.812	84.544	109.253	186.914	143.512	146.472	145.063	192.094	143.345	106.961	196.129	87.648	28.554
35.000	332.207	335.741	303.201	231.414	274.601	272.524	273.383	232.178	276.964	307.642	222.437	330.703	88.149	84.902	108.704	186.985	145.183	146.353	145.851	187.200	141.984	111.402	196.272	87.719	37.668
36.000	330.417	335.359	304.037	230.459	274.434	273.813	275.007	238.194	278.803	302.103	222.628	329.987	89.605	84.950	108.585	187.009	145.231	144.992	144.490	181.470	140.098	116.320	196.153	90.274	49.760
37.000	329.796	334.666	304.347	228.382	274.959	275.389	277.346	244.974	280.736	296.278	222.772	327.194	91.038	85.786	109.015	189.301	144.037	143.201	141.984	174.595	138.212	123.195	195.389	90.966	53.640
38.000	326.788	334.141	303.846	225.947	276.582	278.062	280.020	251.682	282.479	288.519	223.177	326.144	92.566	85.833	108.824	191.545	142.413	141.077	139.334	167.600	136.612	130.644	195.102	93.807	44.977
39.000	323.708	333.783	303.201	223.894	278.659	279.972	282.956	257.698	284.007	279.352	223.774	323.804	95.454	85.595	110.208	194.147	140.241	138.594	136.230	160.987	134.965	139.811	194.577	95.717	33.020
40.000	321.799	333.855	302.819	223.297	280.975	282.622	285.702	263.380	285.320	269.563	224.538	321.154	97.985	86.406	110.447	195.699	138.116	136.039	132.816	155.305	133.819	149.910	194.076	98.582	28.869
41.000	318.289	332.637	302.175	225.111	283.147	285.081	289.187	268.370	285.941	258.510	225.087	317.812	101.351	86.741	111.044	194.577	135.777	133.915	129.975	150.387	132.578	160.366	193.550	101.924	35.502
42.000	312.942	332.470	300.862	228.406	285.296	287.134	291.790	272.548	286.800	246.549	225.230	314.613	106.006	87.314	111.664	191.163	133.604	131.742	127.182	146.090	131.981	171.873	193.216	105.123	46.421
43.000	308.406	331.634	300.193	232.393	287.492	289.164	294.487	276.630	287.851	234.947	225.374	310.077	110.924	87.815	112.906	186.508	131.288	129.450	124.604	142.700	131.456	183.070	192.977	108.442	52.016
44.000	302.962	331.205	299.262	237.525	289.737	291.241	296.851	279.256	287.994	224.299	225.350	307.140	116.344	89.128	113.646	181.566	129.307	127.540	122.002	139.453	130.763	194.553	192.619	111.879	46.015
45.000	295.800	329.796	297.758	242.228	291.957	293.174	299.023	281.906	288.471	218.928	225.827	303.368	124.556	89.844	115.460	176.385	127.134	125.416	119.901	136.612	130.525	199.710	192.237	115.938	35.908
46.000	288.161	328.841	296.755	246.812	293.461	295.347	301.363	284.437	288.710	228.239	225.923	300.026	132.172	90.513	116.869	171.658	125.320	123.864	117.800	134.273	130.190	190.686	192.046	119.829	30.764
47.000	278.373	327.982	294.487	251.849	295.323	296.517	302.604	286.728	289.164	236.881	226.496	296.636	140.432	91.372	118.803	166.693	123.553	121.978	116.272	132.267	130.023	181.781	191.927	123.052	35.457
48.000	269.038	327.480	292.673	256.338	296.851	298.403	304.490	288.089	288.973	244.687	226.567	292.912	150.387	92.208	120.951	162.252	121.835	119.949	114.410	130.429	129.928	173.926	191.450	126.729	44.436
49.000	259.393	326.263	290.262	260.778	298.689	300.169	305.756	289.856	288.782	252.303	226.735	290.119	159.889	93.091	123.649	157.836	120.474	118.421	113.216	128.853	129.832	166.908	191.426	129.784	49.444
50.000	250.011	325.690	287.421	265.266	300.121	302.222	306.902	291.073	289.211	260.014	227.021	286.776	169.605	94.308	126.562	153.061	118.850	116.750	112.405	127.516	129.570	159.531	191.306	133.342	46.195
51.000	241.441	324.496	283.649	269.635	301.482	303.488	308.262	292.267	289.450	265.505	227.188	283.028	178.248	95.001	130.119	148.907	117.394	115.007	111.211	126.394	129.379	153.658	191.282	136.923	39.021
52.000	234.231	323.422	280.307	273.097	302.270	304.729	308.620	293.389	289.187	269.635	227.188	279.734	185.672	95.932	134.034	145.087	116.081	113.718	110.256	125.296	129.522	149.098	191.068	140.337	33.336
53.000	228.453	322.873	276.415	276.248	303.750	306.018	309.766	294.392	289.450	273.455	227.475	276.606	191.187	97.030	137.854	141.936	115.174	112.787	109.564	124.365	129.355	145.278	191.044	143.034	35.953
54.000	223.798	321.488	271.975	279.017	304.252	306.806	310.435	295.371	289.402	276.558	227.475	273.646	195.795	98.486	142.366	139.310	113.980	111.450	108.847	123.649	129.331	141.960	190.829	145.589	41.458
55.000	220.623	320.509	267.439	281.476	305.302	307.522	310.697	295.705	289.450	279.447	227.570	271.306	198.755	99.250	146.782	137.114	113.169	110.877	108.274	122.885	129.426	139.692	190.781	148.024	46.511
56.000	219.907	319.913	263.333	283.720	306.233	308.620	310.984	296.349	289.808	281.691	227.666	269.516	200.259	100.110	151.653	135.156	112.643	110.232	107.845	122.288	129.259	137.496	190.781	150.698	45.428
57.000	222.963	318.934	259.083	285.654	306.782	309.456	311.438	296.803	289.283	283.171	227.618	267.486	197.155	100.659	156.379	133.198	111.808	109.611	107.511	121.763	129.211	135.610	190.757	152.369	40.916
58.000	228.024	318.289	254.905	286.752	307.642	309.790	311.843	297.495	289.760	284.580	227.522	264.789	191.593	101.590	160.939	131.575	111.354	109.110	107.296	121.381	129.164	134.106	190.829	154.350	35.998
59.000	232.942	317.454	250.847	288.209	307.880	310.124	312.058	297.519	289.760	286.060	227.642	263.118	186.030	102.497	165.165	130.143	110.924	108.656	106.914	120.975	129.235	132.745	190.709	156.332	35.728
60.000	238.982	316.403	247.122	289.737	308.620	310.411	312.249	298.522	289.784	287.492	227.642	261.303	180.396	103.022	169.152	128.901	110.304	108.155	106.532	120.522	129.283	131.312	190.590	158.265	39.563
61.000	243.804	315.997	243.518	290.644	308.406	310.745	312.822	298.450	289.593	288.328	228.095	259.584	176.027	104.049	172.781	127.970	110.113	107.964	106.436	120.235	129.259	130.525	190.399	159.913	44.797
62.000	248.459	314.804	240.581	291.766	308.931	311.342	312.822	298.570	289.832	289.426	227.976	257.722	171.348	104.789	176.553	126.753	109.707	107.701	106.341	120.020	129.259	129.689	190.423	161.703	44.932
63.000	252.446	314.350	237.692	292.888	309.384	311.605	312.774	298.808	289.355	290.214	228.215	256.648	167.242	105.457	179.704	126.036	109.444	107.463	106.102	119.662	129.116	128.830	190.375	163.088	41.367
64.000	255.621	314.111	235.042	293.318	309.408	311.485	313.061	299.214	289.928	291.073	228.239	255.096	164.186	106.245	182.521	125.320	109.110	107.224	105.983	119.447	129.140	128.233	190.256	164.544	37.307
65.000	258.892	312.894	232.727	294.034	309.766	311.652	313.300	299.668	289.832	291.551	228.167	253.807	160.987	106.842	185.147	124.461	108.919	107.224	105.959	119.304	129.068	127.302	190.256	166.000	36.540
66.000	261.637	311.987	230.411	294.822	309.981	311.652	313.013	299.620	289.808	292.291	228.000	252.470	157.883	107.558	187.176	123.912	108.561	106.818	105.744	119.209	129.092	126.896	190.208	167.194	39.382
67.000	264.407	311.605	229.241	295.227	310.411	312.106	313.371	299.931	289.784	292.601	227.952	251.157	155.448	108.131	189.325	123.339	108.609	106.914	105.815	118.970	129.140	126.108	190.041	168.555	43.849
68.000	266.364	311.294	227.785	295.777	310.339	312.010	313.658	299.978	289.593	293.509	228.119	250.083	153.395	108.967	190.733	122.742	108.298	106.794	105.601	118.803	129.211	125.821	190.137	169.605	44.165
69.000	268.227	310.841	227.093	296.111	310.865	312.416	313.705	300.217	289.975	293.843	228.167	248.698	150.984	109.325	192.261	122.384	108.179	106.365	105.505	118.588	129.188	125.296	190.113	170.608	41.728
70.000	270.972	309.695	226.639	296.851	310.697	312.536	313.896	300.432	289.808	293.962	228.430	247.695	149.026	109.707	193.359	121.906	107.988	106.365	105.457	118.397	129.116	124.843	190.017	171.754	38.976
71.000	272.333	309.098	226.114	297.304	310.817	312.416	313.514	300.289	289.569	294.344	228.382	246.669	147.499	110.447	193.980	121.429	107.916	106.221	105.481	118.373	129.116	124.508	189.993	172.924	36.856
72.000	274.052	308.740	225.971	297.758	311.390	312.870	313.896	300.551	289.760	294.750	228.549	245.977	145.995	111.115	194.481	121.023	107.869	106.221	105.410	118.230	129.092	124.031	189.850	173.879	38.886
73.000	274.720	307.809	225.899	297.901	310.721	312.416	313.873	300.432	289.880	295.371	228.573	244.616	144.371	111.474	194.863	120.808	107.630	106.150	105.338	118.206	129.044	123.744	189.946	174.690	42.044
74.000	276.487	307.761	226.042	298.355	311.199	312.774	313.801	300.575	289.856	295.251	228.549	244.472	143.488	112.166	194.625	120.545	107.725	106.150	105.338	118.134	129.092	123.553	189.969	175.550	44.436
75.000	277.943	307.045	226.448	298.331	311.342	312.798	313.896	301.005	290.023	295.872	228.597	243.231	142.223	112.787	194.529	120.235	107.415	106.030	105.195	117.872	129.068	123.267	189.850	176.242	42.586
76.000	278.564	306.734	226.567	298.474	311.056	312.965	313.992	300.909	290.071	296.230	228.310	242.419	140.838	113.431	194.314	119.949	107.415	105.983	105.219	117.872	129.044	122.981	189.874	177.149	39.608
77.000	279.519	305.708	227.021	298.832	311.318	312.965	313.849	300.885	289.617	296.135	228.430	241.512	139.907	114.076	193.813	119.805	107.415	105.911	104.980	117.752	128.997	122.742	189.874	177.842	37.623
78.000	280.999	305.135	227.093	298.976	311.294	312.894	314.278	301.076	289.856	296.206	228.453	241.130	138.976	114.434	193.383	119.519	107.176	105.839	105.075	117.657	129.020	122.479	189.874	178.558	38.841
79.000	281.643	304.705	228.048	299.095	311.247	313.061	314.064	300.885	289.880	296.636	228.406	240.796	138.069	115.126	192.834	119.447	107.105	105.672	104.932	117.752	129.164	122.384	189.874	179.393	41.503
80.000	282.169	304.204	228.143	299.549	311.581	313.276	314.159	301.339	290.023	297.113	228.334	240.008	137.639	115.842	192.381	119.161	107.129	105.744	105.075	117.561	129.020	122.097	189.850	179.895	43.804
81.000	283.124	303.106	229.361	299.596	311.915	313.324	314.302	301.053	289.546	296.851	228.597	239.149	136.469	116.415	191.855	119.041	107.081	105.553	104.932	117.537	129.068	121.954	189.826	180.396	42.676
82.000	283.506	302.891	229.671	299.811	311.390	313.133	314.374	301.482	289.999	297.209	228.501	238.767	135.872	116.821	191.330	118.683	107.105	105.648	104.980	117.466	128.973	121.739	189.826	180.850	39.879
83.000	284.270	302.031	229.838	299.907	311.557	313.252	314.374	301.124	289.928	297.281	228.334	238.122	135.108	117.776	190.757	118.707	107.105	105.553	104.932	117.418	129.020	121.500	189.874	181.470	38.615
84.000	284.962	302.007	230.339	300.193	311.628	313.180	314.135	301.578	289.975	297.567	228.286	237.597	134.320	118.182	189.969	118.468	106.961	105.481	104.861	117.275	128.997	121.381	189.898	181.900	38.751
85.000	285.869	300.671	230.793	300.193	311.772	313.347	314.350	301.554	289.808	297.567	228.382	237.000	133.747	118.683	189.564	118.373	106.890	105.529	104.813	117.299	128.997	121.142	189.731	182.378	40.510
86.000	286.084	300.121	231.247	300.551	311.772	312.965	314.040	301.267	290.262	297.997	228.597	236.427	133.342	119.328	189.062	118.158	106.938	105.386	104.884	117.418	129.044	121.142	189.707	182.951	43.262
87.000	286.896	299.787	231.652	300.384	312.010	313.276	314.135	301.435	289.784	298.092	228.740	236.523	132.625	119.829	188.656	118.086	106.914	105.386	104.670	117.203	128.973	120.975	189.802	183.452	42.947
88.000	287.373	299.238	232.393	300.790	312.201	313.538	314.183	301.506	289.808	298.068	228.668	236.069	132.291	120.569	187.869	117.991	106.699	105.386	104.813	117.132	129.020	120.880	189.731	183.691	40.285
89.000	287.827	298.665	232.655	300.694	311.867	313.133	314.231	301.673	290.142	298.188	228.525	235.353	131.551	121.142	187.487	117.752	106.770	105.362	104.741	117.084	128.949	120.665	189.731	184.168	38.976
