-----------------------------------------------------
BloodHound 307 VOC Analyser V2017.1
RoboScientific Ltd 
Espace North
Wisbech Road
Littleport
Cambridgeshire, UK
CB6 1RA 
-----------------------------------------------------
Date = 21/04/2022
Time = 12:08:43
Data is protected by RoboScientific Limited
-----------------------------------------------------
Name of the experiment = "44b_Day 39"
-----------------------------------------------------
Repeat No. = 3/4
-----------------------------------------------------
Experimental Time (in sec) and Flow Profile :
-----------------------------------------------------
Baseline = 2.00
Absorb = 4.00
Pause = 1.00
Desorb = 5.00
Flush = 20.00
Wait = 5.00
Higher Flow (V) = 4.00
Medium Flow (V) = 3.00
Low Flow (V) = 1.00
-----------------------------------------------------
Total Profile Time = 37 in sec
-----------------------------------------------------
Acquired data point per second = 4
--------------------------------------------------
Total data point stored  = 128
-----------------------------------------------------
Acquired sensor responses from 24 sensors
-----------------------------------------------------

Data Points	 Sen-1	 Sen-2	 Sen-3	 Sen-4	 Sen-5	 Sen-6	 Sen-7	 Sen-8	 Sen-9	 Sen-10	 Sen-11	 Sen-12	 Sen-13	 Sen-14	 Sen-15	 Sen-16	 Sen-17	 Sen-18	 Sen-19	 Sen-20	 Sen-21	 Sen-22	 Sen-23	 Sen-24	Humidity (%r.h.)
0.000	303.893	225.278	242.658	304.228	313.133	314.780	315.019	303.726	290.333	303.082	229.599	218.140	115.842	194.649	177.030	114.625	105.959	104.359	104.168	115.126	128.806	115.580	188.513	201.811	40.646
1.000	303.941	224.849	242.992	303.893	312.727	314.398	315.114	303.679	290.142	303.082	229.862	218.021	115.962	195.054	176.648	114.577	105.839	104.216	104.144	115.007	128.686	115.580	188.442	202.049	40.285
2.000	303.798	224.729	242.968	304.108	312.870	314.302	315.329	303.917	290.310	303.512	229.719	217.877	115.723	195.222	176.553	114.529	106.102	104.479	104.120	115.078	128.686	115.246	188.537	202.073	39.924
3.000	303.774	224.419	243.374	304.180	312.822	314.326	315.210	303.655	290.142	303.416	229.934	217.710	115.747	195.556	176.266	114.505	106.006	104.407	104.073	114.911	128.639	115.532	188.489	201.978	39.788
4.000	303.965	223.703	243.374	303.870	312.751	314.374	314.995	303.893	290.548	303.583	230.101	217.758	115.556	196.057	176.075	114.482	106.054	104.383	104.216	115.007	128.734	115.413	188.346	202.002	40.239
5.000	304.371	223.559	243.709	304.323	312.918	314.637	315.114	303.750	290.023	303.130	230.077	217.949	115.484	196.320	175.932	114.577	105.911	104.264	104.120	115.055	128.686	115.413	188.370	202.049	40.465
6.000	304.299	223.344	243.589	303.989	312.774	314.589	314.828	303.774	290.381	303.726	229.766	217.877	115.508	196.797	175.956	114.386	105.959	104.407	104.264	115.078	128.853	115.532	188.418	201.954	40.600
7.000	304.395	222.939	243.613	304.777	313.133	314.135	314.828	303.941	290.286	303.655	229.934	217.925	115.078	197.060	175.741	114.577	106.006	104.407	104.097	115.007	128.853	115.269	188.609	202.193	40.239
8.000	304.610	222.437	243.971	304.132	312.846	314.469	315.042	304.037	290.333	303.655	229.790	217.830	115.341	197.394	175.454	114.529	105.863	104.288	104.192	115.031	128.806	115.293	188.418	202.240	39.969
9.000	304.777	222.079	244.210	304.013	312.822	314.589	315.042	303.583	290.310	303.631	229.981	217.567	115.078	197.704	175.168	114.458	105.744	104.311	104.264	115.055	128.710	115.150	188.442	202.216	39.833
10.000	302.031	261.494	243.613	304.132	312.918	314.422	315.042	303.679	290.310	302.628	229.552	255.788	117.824	159.698	175.550	114.434	105.935	104.359	104.097	115.222	128.639	116.344	188.704	165.571	39.969
11.000	259.942	294.392	239.722	302.318	312.536	314.016	314.804	302.437	290.859	286.060	227.880	288.424	160.892	126.633	179.608	116.009	106.317	104.980	104.359	116.606	128.018	133.771	190.375	133.127	38.841
12.000	245.213	310.292	230.101	299.668	311.724	312.918	314.374	299.620	291.169	236.642	226.353	304.514	173.735	109.707	190.447	118.707	107.248	105.768	104.693	119.399	127.493	182.545	191.688	116.797	46.240
13.000	270.208	318.743	234.851	295.944	310.554	311.772	313.753	295.991	290.930	231.772	225.421	314.278	147.403	100.372	183.356	122.790	108.107	106.747	105.243	122.813	127.684	185.051	192.691	107.009	51.339
14.000	289.593	324.186	249.056	290.381	309.289	310.650	313.276	292.649	290.930	250.298	224.705	319.698	128.710	95.383	167.385	128.113	109.277	107.797	105.744	126.036	128.066	166.955	193.527	101.757	44.977
15.000	303.273	328.412	261.757	283.434	307.833	309.671	312.560	288.782	290.190	264.980	224.467	323.374	115.174	91.348	154.350	134.678	110.901	109.349	106.484	130.143	128.806	152.584	194.004	97.818	33.427
16.000	312.679	329.963	271.879	276.535	305.827	307.379	311.533	283.983	288.949	276.558	223.798	326.024	106.651	90.011	144.037	142.032	112.739	111.139	107.630	134.893	129.880	142.342	194.601	95.454	28.644
17.000	319.125	331.491	279.017	268.800	303.559	305.565	310.387	278.540	287.851	284.962	223.392	328.555	99.728	88.579	135.848	150.005	114.864	113.025	108.824	140.289	130.835	133.652	194.911	92.972	35.682
18.000	323.613	332.971	285.057	260.778	301.506	303.344	308.358	272.643	287.110	291.503	223.177	329.462	95.645	86.621	128.925	157.883	117.275	115.604	110.519	146.782	132.124	127.087	195.054	92.303	48.812
19.000	326.478	333.831	289.593	252.995	298.594	300.718	306.758	265.911	285.678	296.660	223.177	330.512	92.399	86.478	123.840	165.953	120.283	118.182	112.548	153.180	133.365	121.500	195.174	89.749	54.497
20.000	328.984	334.093	293.485	245.022	295.705	297.281	304.371	258.797	284.365	300.694	222.915	331.969	89.892	85.642	119.758	173.903	123.076	121.142	114.959	160.175	134.344	117.060	195.031	89.032	46.601
21.000	330.680	334.619	296.636	237.358	292.577	294.225	301.172	251.826	282.837	304.825	223.034	331.873	88.483	84.783	116.344	181.470	126.466	124.389	117.752	167.361	135.992	113.407	195.771	89.319	34.239
22.000	331.778	335.406	298.785	230.793	288.543	290.644	297.424	245.117	281.142	307.307	222.867	332.828	87.887	85.428	114.482	188.370	130.119	128.089	121.500	174.499	137.400	110.542	195.508	89.152	27.516
23.000	332.637	335.215	301.411	225.899	285.010	287.110	293.747	238.433	279.948	310.172	222.915	332.971	87.099	84.473	112.476	194.004	134.440	131.718	125.583	181.327	139.095	107.916	195.842	87.934	33.923
24.000	333.568	335.812	302.843	224.514	280.498	282.980	288.877	232.202	278.540	312.774	222.843	333.401	86.287	84.353	110.638	194.004	138.904	135.824	130.525	187.582	140.671	105.815	195.604	87.672	46.962
25.000	333.162	335.311	303.917	227.260	275.675	278.922	284.198	227.833	276.558	314.708	223.082	333.282	85.284	84.473	109.898	190.686	144.013	139.811	135.753	192.214	142.461	104.526	195.436	86.502	54.903
26.000	334.070	336.051	305.063	227.546	273.025	277.442	280.545	226.806	276.105	314.565	222.581	334.356	85.428	84.115	109.253	190.375	147.021	141.387	139.071	193.359	143.249	104.120	195.842	86.979	48.271
27.000	333.855	336.290	305.278	228.143	271.879	277.919	278.970	227.236	275.938	313.538	223.321	333.568	85.260	84.735	108.489	190.280	147.928	141.053	140.074	193.001	143.106	104.288	195.389	86.550	35.682
28.000	333.950	336.338	305.326	227.307	271.712	278.206	278.659	227.952	275.699	313.324	223.106	333.664	86.001	84.807	109.062	190.709	148.549	140.718	140.695	192.763	143.058	104.980	195.890	86.287	27.696
29.000	334.332	335.956	305.612	227.403	271.091	278.325	278.110	227.785	276.630	313.204	223.177	333.974	85.690	84.282	108.895	191.091	148.883	140.718	141.196	192.452	142.748	104.884	195.651	86.669	32.253
30.000	334.619	336.457	305.708	230.053	269.945	276.654	276.033	226.353	275.341	315.162	223.058	333.664	84.329	84.687	108.824	188.298	150.507	142.485	142.939	193.479	143.416	103.595	195.556	86.573	44.300
31.000	335.263	336.529	306.925	234.756	265.672	273.264	272.548	224.467	274.123	316.379	222.795	333.592	84.592	83.542	107.845	183.213	153.586	145.971	147.260	194.744	144.681	102.043	195.604	86.192	54.497
32.000	334.595	335.621	307.713	239.364	262.091	269.182	267.176	225.326	272.667	317.287	222.772	334.953	84.950	84.067	107.224	178.462	157.573	149.934	151.724	193.670	146.305	101.781	195.842	86.311	50.527
33.000	333.950	335.788	309.313	242.730	257.961	266.269	263.213	224.562	273.192	316.093	223.321	333.807	85.833	84.091	106.699	175.407	161.536	152.393	155.806	193.741	146.329	102.616	195.317	86.717	38.435
34.000	333.329	335.932	308.907	243.446	255.550	266.054	261.972	224.490	273.765	312.536	222.843	331.754	86.836	84.592	106.245	173.759	164.282	153.085	157.454	195.007	144.992	105.648	195.198	86.836	28.238
35.000	331.611	335.860	309.289	243.709	254.666	267.105	263.237	228.883	276.296	309.241	223.344	331.467	88.149	84.186	106.412	174.667	164.855	151.891	155.974	190.948	142.485	109.325	194.959	88.770	30.674
36.000	330.465	335.478	309.026	241.321	255.979	269.014	266.293	235.735	278.635	303.130	223.392	329.199	89.868	84.234	106.532	176.385	163.565	149.719	152.966	183.738	140.002	115.365	195.460	90.011	42.270
37.000	329.223	334.046	309.719	238.456	258.295	271.593	269.587	243.470	280.856	296.135	223.965	327.098	90.918	85.237	106.579	179.107	161.226	147.260	149.671	176.600	137.949	122.145	194.338	92.041	52.647
38.000	326.263	333.759	308.811	234.684	261.112	274.553	273.789	250.918	282.622	288.280	224.801	325.045	93.927	85.475	107.224	182.807	158.600	144.514	145.565	168.627	136.278	130.787	193.980	94.046	51.519
39.000	322.443	333.616	308.859	230.674	264.335	277.060	277.633	257.627	284.413	279.065	225.159	322.085	96.505	86.144	107.152	186.818	154.780	141.482	141.315	161.655	134.511	140.718	193.025	97.627	40.510
40.000	319.363	333.520	307.833	226.138	267.868	279.805	281.715	263.452	285.415	267.892	226.162	318.982	99.990	86.908	107.749	191.282	151.271	138.641	137.281	155.138	133.246	151.462	192.786	100.205	30.494
41.000	315.257	332.255	307.307	223.535	271.044	282.622	285.511	269.014	286.490	256.743	226.281	315.281	104.216	87.170	108.418	195.413	147.475	135.848	133.413	149.934	132.196	161.990	192.476	104.240	30.629
42.000	309.742	331.825	306.209	223.297	275.030	285.344	289.402	273.455	287.254	244.520	226.520	311.414	109.444	88.269	108.847	196.176	143.989	133.151	129.570	145.183	131.527	174.022	191.903	108.227	39.698
43.000	302.700	331.109	305.159	226.735	278.301	287.946	292.768	277.346	288.209	232.560	226.711	307.284	116.750	88.961	109.826	192.428	140.862	130.668	126.442	141.435	130.978	186.555	191.688	111.999	49.308
44.000	294.010	330.345	304.371	232.058	281.238	290.405	295.657	280.450	288.495	221.482	226.973	303.416	125.559	89.749	110.924	187.033	137.424	128.400	123.386	138.212	130.477	197.824	191.187	116.463	50.301
45.000	284.484	329.080	302.843	237.621	284.293	292.458	298.140	283.315	289.044	223.177	227.260	299.358	135.132	90.584	112.285	181.375	134.488	126.227	120.569	135.442	130.262	196.678	190.996	120.402	41.954
46.000	273.717	328.364	301.220	243.088	287.134	294.463	300.480	285.511	289.211	231.891	227.522	295.490	146.209	91.754	114.028	175.574	131.623	124.031	118.421	133.127	130.071	186.794	190.853	124.389	33.697
47.000	262.736	326.788	299.358	248.149	290.095	296.755	302.533	287.683	289.020	241.059	227.809	292.148	157.000	92.279	115.651	170.298	128.901	122.145	116.391	130.859	129.641	177.746	190.638	127.803	32.118
48.000	251.396	325.976	297.281	253.497	292.267	298.379	304.061	289.450	289.450	248.698	228.071	288.209	167.791	93.736	117.179	165.046	126.585	119.972	114.816	129.402	129.689	169.820	190.471	131.742	38.480
49.000	241.894	324.711	295.562	258.940	294.416	300.265	305.636	291.073	289.617	256.075	228.119	285.177	177.173	94.643	119.734	160.056	124.365	118.349	113.383	127.755	129.593	162.825	190.399	134.774	46.421
50.000	233.324	323.446	292.386	263.953	296.469	302.843	306.782	292.076	289.355	262.783	228.358	280.545	186.078	96.338	122.527	154.852	122.288	116.057	112.023	126.347	129.617	156.356	189.993	138.809	48.090
51.000	226.973	322.634	289.450	268.489	298.570	304.252	308.000	293.485	289.378	268.680	228.310	277.251	192.977	97.340	125.965	150.101	120.402	114.482	110.948	125.105	129.450	150.841	189.802	142.557	42.676
52.000	221.793	321.345	285.845	272.285	299.763	305.159	308.883	294.535	289.737	272.739	228.358	274.123	198.253	98.462	129.713	146.209	118.636	113.097	110.208	124.294	129.402	146.209	189.826	145.780	36.495
53.000	219.095	320.581	281.858	275.365	301.267	306.806	309.623	295.538	289.474	275.723	228.716	271.139	200.450	99.417	133.676	142.819	117.275	112.023	109.253	123.267	129.402	142.843	189.611	148.835	34.464
54.000	222.986	319.125	277.848	278.516	302.485	307.761	310.339	296.063	289.784	279.041	228.788	268.441	196.439	100.539	137.806	139.477	115.914	110.996	108.704	122.670	129.235	139.764	189.564	151.223	38.299
55.000	228.979	318.480	272.977	281.238	303.798	308.549	310.530	296.755	290.095	281.691	228.716	266.150	191.187	101.256	142.032	137.424	114.864	110.137	108.036	121.906	129.211	137.519	189.587	154.088	44.436
56.000	234.637	317.525	268.465	283.076	304.538	309.337	311.581	297.495	289.713	283.673	228.812	263.380	184.837	102.425	147.117	135.013	113.789	109.397	107.701	121.381	129.379	135.490	189.492	156.451	45.834
57.000	240.915	316.308	264.407	285.272	305.756	310.101	311.987	297.615	289.928	285.153	228.812	260.993	178.964	103.476	151.557	133.342	113.264	108.680	107.248	120.808	129.235	133.724	189.396	158.671	42.586
58.000	245.642	314.684	260.420	287.230	306.233	310.554	312.082	298.235	289.569	286.728	229.217	258.940	173.401	104.622	155.878	131.432	112.357	108.107	106.961	120.522	129.164	132.267	189.349	160.915	38.209
59.000	250.274	314.159	256.170	288.376	306.758	310.912	312.201	298.761	289.546	288.018	229.074	257.531	169.128	105.720	160.128	129.975	111.784	107.821	106.770	120.163	129.116	130.978	189.301	163.231	36.043
60.000	254.595	312.989	252.040	290.095	307.475	311.342	312.583	298.689	289.378	288.925	229.002	254.905	164.926	106.914	164.091	128.615	111.235	107.367	106.365	119.805	129.259	129.880	189.325	164.902	38.480
61.000	258.009	312.010	248.006	290.787	307.833	311.438	312.965	299.787	289.880	290.310	229.026	252.924	161.345	107.654	168.364	127.516	110.757	107.296	106.245	119.495	129.235	128.830	189.301	166.669	43.217
62.000	261.661	310.697	245.093	291.766	308.238	312.058	313.276	300.026	289.856	291.097	229.241	250.894	158.146	109.062	172.017	126.753	110.542	106.890	106.030	119.018	129.092	127.779	189.086	168.627	44.345
63.000	264.240	310.220	242.228	293.341	308.955	312.512	313.109	299.787	289.641	291.790	229.313	250.130	155.568	110.065	175.192	125.726	110.113	106.699	106.078	118.946	128.997	127.182	189.110	170.154	42.495
64.000	266.770	308.620	239.101	293.437	308.716	312.273	313.562	300.480	289.975	292.386	229.456	247.982	153.157	111.139	178.152	124.914	109.731	106.412	105.720	118.731	129.188	126.585	188.967	171.826	39.472
65.000	269.134	307.761	236.403	294.272	309.050	312.703	313.801	300.503	289.689	293.007	229.026	246.573	150.793	112.596	181.088	124.246	109.420	106.317	105.720	118.540	129.164	125.798	189.062	173.282	37.262
66.000	271.139	306.782	234.398	295.180	309.742	312.512	313.514	300.718	289.760	293.580	229.241	245.356	148.597	113.646	183.452	123.410	109.301	106.174	105.434	118.230	129.092	125.201	188.943	174.690	38.660
67.000	272.500	305.302	232.130	295.442	309.575	312.679	313.682	300.933	290.214	294.344	229.480	243.756	146.949	114.529	185.768	122.861	109.062	106.078	105.386	118.039	129.140	124.699	188.943	176.051	42.089
68.000	274.625	303.655	230.339	296.278	310.077	313.037	313.896	301.029	289.665	294.726	229.743	242.491	145.135	116.081	187.606	122.622	108.776	105.959	105.266	117.919	128.925	124.317	188.823	177.293	44.300
69.000	275.914	303.082	229.002	296.803	310.268	313.085	313.777	300.838	289.689	294.774	229.241	241.632	143.774	117.299	189.444	121.835	108.442	105.863	105.338	117.895	129.140	123.816	188.895	178.367	42.811
70.000	277.155	301.267	227.928	297.137	310.387	312.989	313.801	300.885	290.023	295.514	229.361	240.271	142.413	118.612	191.068	121.524	108.418	105.601	105.195	117.752	129.188	123.577	188.991	179.561	39.653
71.000	278.325	300.360	227.164	297.472	310.697	313.085	313.729	300.838	289.522	295.466	229.790	239.053	141.053	119.686	192.285	121.095	108.346	105.601	105.266	117.585	129.020	123.124	188.847	180.563	38.254
72.000	279.972	299.644	226.066	297.758	310.602	313.443	314.135	301.291	290.095	296.254	229.504	238.600	139.955	120.784	193.479	120.808	108.107	105.529	105.147	117.466	129.068	122.790	188.919	181.614	38.886
73.000	280.545	298.164	225.135	298.259	310.602	313.204	313.920	301.339	290.142	296.397	229.480	237.334	138.928	122.121	194.267	120.450	108.107	105.601	105.075	117.275	129.092	122.455	188.823	182.139	41.232
74.000	281.500	296.636	224.801	298.259	310.411	313.204	313.896	301.411	289.904	296.779	229.456	236.642	137.997	123.219	194.887	120.235	107.916	105.601	105.075	117.203	129.116	122.097	188.776	183.213	43.488
75.000	282.861	295.538	224.729	298.856	311.008	313.729	314.087	301.530	289.737	297.233	229.838	235.687	136.660	124.270	195.317	119.877	107.797	105.338	105.099	117.060	128.973	121.811	188.776	184.049	42.450
76.000	283.768	294.177	224.490	298.928	310.769	313.514	314.469	301.793	289.975	297.257	229.719	234.660	135.920	125.917	195.723	119.662	107.916	105.386	104.861	116.941	128.853	121.596	188.871	184.908	40.059
77.000	284.484	293.174	224.443	299.190	310.745	313.443	314.016	301.817	290.071	297.830	229.408	234.040	134.941	126.657	195.938	119.399	107.511	105.243	104.908	116.988	129.140	121.429	188.752	185.601	38.886
78.000	285.678	291.646	224.586	299.262	311.294	313.777	314.446	302.031	289.951	297.854	229.528	233.538	134.392	128.018	195.771	119.185	107.415	105.243	104.980	116.893	128.925	120.999	188.680	186.269	39.112
79.000	285.941	290.333	224.849	299.692	311.438	313.753	314.231	301.888	289.665	297.877	229.719	232.846	133.724	129.259	195.627	118.946	107.534	105.147	104.861	116.893	129.092	120.808	188.823	186.961	40.961
80.000	286.967	289.331	225.278	300.026	311.103	313.610	314.398	302.127	290.095	298.379	229.599	232.249	133.222	130.811	195.389	118.827	107.487	105.171	104.765	116.654	128.973	120.641	188.656	187.510	42.902
81.000	287.230	288.137	225.612	299.740	311.390	313.705	314.183	301.960	290.238	298.379	229.766	231.390	132.506	131.694	195.078	118.516	107.272	105.147	104.765	116.702	128.997	120.522	188.752	187.916	42.180
82.000	288.018	286.967	225.780	300.098	311.318	313.944	314.422	301.984	290.095	298.498	229.838	231.056	131.838	132.816	194.720	118.636	107.296	105.004	104.622	116.630	128.949	120.402	188.871	188.704	40.194
83.000	288.161	286.108	226.185	300.074	311.533	313.896	314.255	301.984	289.880	298.665	229.528	231.032	131.432	134.082	194.338	118.301	107.320	105.123	104.693	116.582	128.997	120.211	188.609	189.086	39.292
84.000	288.829	284.699	226.544	300.623	311.533	313.896	314.469	302.198	289.880	298.880	230.053	230.339	130.859	135.347	193.861	118.182	107.248	104.980	104.646	116.630	128.949	120.140	188.776	189.468	39.021
85.000	289.665	283.434	226.949	300.790	311.843	313.944	314.446	302.151	289.880	299.286	229.814	229.934	130.143	136.374	193.455	117.943	107.152	105.004	104.717	116.439	128.925	119.925	188.680	189.778	40.330
86.000	289.904	282.049	227.403	300.671	311.461	314.016	314.565	302.413	289.951	298.976	229.528	229.313	129.808	137.567	192.930	117.991	107.200	104.980	104.741	116.559	128.925	119.686	188.656	190.208	42.360
87.000	290.142	281.429	228.191	301.411	311.819	314.087	314.207	302.151	289.880	299.190	229.886	229.146	129.402	138.737	192.715	117.681	107.105	105.052	104.622	116.511	128.973	119.638	188.656	190.853	42.180
88.000	290.763	279.901	228.525	300.885	312.082	314.231	314.374	302.294	290.357	299.572	229.814	228.262	128.997	139.644	192.046	117.824	107.200	105.052	104.693	116.344	128.877	119.447	188.704	191.235	40.600
89.000	291.288	278.898	228.692	301.339	311.867	314.231	314.469	302.294	290.166	299.501	229.671	228.095	128.448	140.933	191.617	117.418	106.985	104.837	104.622	116.391	129.068	119.447	188.561	191.617	39.427
