-----------------------------------------------------
BloodHound 307 VOC Analyser V2017.1
RoboScientific Ltd 
Espace North
Wisbech Road
Littleport
Cambridgeshire, UK
CB6 1RA 
-----------------------------------------------------
Date = 21/04/2022
Time = 12:17:53
Data is protected by RoboScientific Limited
-----------------------------------------------------
Name of the experiment = "44b_Day 41"
-----------------------------------------------------
Repeat No. = 4/4
-----------------------------------------------------
Experimental Time (in sec) and Flow Profile :
-----------------------------------------------------
Baseline = 2.00
Absorb = 4.00
Pause = 1.00
Desorb = 5.00
Flush = 20.00
Wait = 5.00
Higher Flow (V) = 4.00
Medium Flow (V) = 3.00
Low Flow (V) = 1.00
-----------------------------------------------------
Total Profile Time = 37 in sec
-----------------------------------------------------
Acquired data point per second = 4
--------------------------------------------------
Total data point stored  = 128
-----------------------------------------------------
Acquired sensor responses from 24 sensors
-----------------------------------------------------

Data Points	 Sen-1	 Sen-2	 Sen-3	 Sen-4	 Sen-5	 Sen-6	 Sen-7	 Sen-8	 Sen-9	 Sen-10	 Sen-11	 Sen-12	 Sen-13	 Sen-14	 Sen-15	 Sen-16	 Sen-17	 Sen-18	 Sen-19	 Sen-20	 Sen-21	 Sen-22	 Sen-23	 Sen-24	Humidity (%r.h.)
0.000	304.801	218.164	242.205	303.917	312.583	314.350	314.971	303.726	290.333	303.631	229.862	217.997	114.720	201.596	177.006	114.959	106.269	104.407	104.120	114.911	128.639	115.389	188.513	201.978	40.646
1.000	305.159	218.116	242.921	303.631	312.774	314.637	314.899	303.750	290.286	303.559	229.790	217.591	114.625	201.691	176.791	114.816	106.197	104.526	104.168	114.959	128.686	115.317	188.370	202.002	40.691
2.000	304.992	218.140	242.563	303.893	312.846	314.613	314.804	303.655	290.238	303.416	229.862	217.901	114.577	202.002	176.648	114.983	106.245	104.335	104.216	114.911	128.662	115.413	188.418	202.169	40.239
3.000	305.445	218.068	242.945	303.583	312.679	314.732	315.042	303.893	290.286	303.679	229.981	217.615	114.601	202.169	176.505	114.864	106.293	104.383	104.144	114.864	128.543	115.150	188.370	202.025	39.879
4.000	305.135	217.830	242.682	303.822	312.488	314.589	314.899	303.965	290.405	303.631	229.552	217.591	114.386	202.407	176.194	114.720	106.126	104.407	104.144	115.007	128.686	115.078	188.513	202.193	39.879
5.000	304.944	217.901	243.016	304.275	312.607	314.708	315.019	303.750	290.286	303.750	229.838	217.543	114.553	202.407	176.290	114.792	106.150	104.383	104.192	115.031	128.662	115.293	188.609	202.312	40.420
6.000	305.398	217.639	243.327	303.870	312.607	314.398	315.019	303.750	290.405	303.846	229.695	217.352	114.482	202.551	176.123	114.744	106.197	104.502	104.097	114.887	128.662	115.078	188.418	202.145	40.600
7.000	305.135	217.519	243.040	303.512	312.583	314.111	314.756	303.774	290.668	303.535	229.814	217.615	114.243	202.646	175.932	114.792	106.174	104.455	104.097	114.887	128.639	115.031	188.513	202.169	40.555
8.000	305.732	217.567	243.136	303.941	312.870	314.517	315.162	303.774	290.262	303.655	229.838	217.806	114.243	202.766	175.884	114.816	106.221	104.502	104.168	115.031	128.686	115.007	188.442	202.216	40.149
9.000	305.350	217.424	243.709	303.893	312.464	314.350	315.066	303.893	290.166	303.726	229.886	217.591	113.885	202.718	175.789	114.625	106.221	104.359	104.025	114.816	128.734	115.031	188.394	202.216	39.924
10.000	303.225	254.189	243.494	303.583	312.703	314.374	314.732	303.583	290.262	302.724	229.337	254.714	116.057	167.719	175.908	114.864	106.245	104.526	104.168	114.983	128.519	115.914	188.704	167.767	39.969
11.000	266.555	290.333	239.674	302.222	312.154	313.896	314.493	302.127	291.264	288.829	227.737	287.851	155.830	130.572	179.728	116.224	106.699	105.004	104.311	116.368	127.946	131.670	190.304	133.700	38.841
12.000	239.364	307.570	230.005	299.429	311.533	313.061	314.446	299.692	291.312	239.698	226.424	304.514	179.632	111.784	190.423	119.089	107.582	105.887	104.813	118.946	127.588	180.134	191.664	117.203	46.511
13.000	264.813	317.931	234.159	294.965	309.814	311.748	313.873	296.302	291.288	230.578	225.302	312.751	151.748	101.972	184.025	123.004	108.537	106.723	105.123	122.217	127.612	186.723	192.667	107.606	51.023
14.000	285.702	323.804	248.841	289.784	308.597	310.674	313.061	292.697	290.811	248.985	224.825	319.363	131.456	96.194	167.863	128.567	109.898	108.083	105.768	125.893	127.970	167.839	193.359	101.566	42.495
15.000	300.599	327.934	261.614	283.052	306.949	309.337	312.655	289.116	289.999	263.953	224.276	323.279	117.919	92.518	154.016	135.490	111.855	109.420	106.556	129.665	128.639	154.374	193.932	97.484	31.396
16.000	311.438	329.987	271.640	275.771	304.968	307.188	311.175	284.771	289.450	275.532	224.395	326.526	108.322	90.059	144.347	143.082	113.765	111.092	107.558	134.273	129.426	143.225	194.338	95.072	30.088
17.000	317.454	332.207	279.232	267.677	302.748	305.780	310.315	279.280	288.686	284.532	223.368	328.579	100.826	88.674	135.442	151.127	116.033	113.216	108.728	139.787	130.668	134.010	194.863	92.757	40.736
18.000	321.846	332.613	285.320	259.537	300.551	303.273	308.477	273.097	286.919	291.073	223.368	329.366	96.648	87.290	128.877	159.173	118.516	115.341	110.638	146.090	131.694	127.349	195.078	91.300	52.783
19.000	325.738	333.282	290.214	251.515	297.185	300.312	306.567	265.935	285.606	296.039	223.130	331.061	92.995	86.669	123.935	166.955	121.572	117.800	112.309	152.154	132.936	121.858	195.365	90.322	51.655
20.000	328.221	333.902	293.819	243.828	294.105	297.400	303.870	259.107	284.293	300.217	222.891	332.279	90.441	85.810	119.113	174.953	124.962	121.118	114.935	159.435	134.273	117.466	195.293	89.200	39.518
21.000	329.748	334.977	297.209	236.642	290.047	293.938	300.933	251.873	283.100	304.443	222.748	332.327	89.152	85.738	116.535	182.927	128.686	124.485	117.943	167.003	135.729	114.004	195.317	88.173	28.554
22.000	331.133	334.905	300.551	230.244	286.776	290.691	297.734	245.499	281.858	307.546	222.819	332.422	88.436	84.306	114.147	189.755	132.936	128.089	121.620	174.285	137.328	110.781	195.675	88.865	31.306
23.000	332.971	334.571	302.700	225.016	281.811	287.015	293.294	238.958	280.426	310.721	222.843	333.783	87.409	84.258	112.142	194.720	137.281	132.076	125.917	181.327	138.689	107.988	195.795	87.743	44.436
24.000	332.279	335.741	304.037	224.801	277.275	282.527	288.901	232.631	278.516	312.464	222.724	333.401	86.359	84.401	110.208	193.240	142.342	135.968	130.477	187.200	140.527	105.720	195.604	88.197	54.407
25.000	333.568	335.502	305.302	228.048	272.572	278.588	283.219	227.546	276.320	314.207	223.058	333.711	85.308	84.520	109.134	189.850	147.045	139.811	135.371	192.190	141.936	103.858	195.627	86.979	48.948
26.000	334.308	335.717	306.066	228.859	269.205	277.084	279.686	227.331	276.033	314.613	222.604	333.902	85.738	83.852	108.418	189.110	150.817	141.721	139.214	193.240	142.867	104.813	196.153	86.717	35.998
27.000	334.452	336.123	306.543	228.764	267.821	277.179	278.731	227.116	276.105	314.111	223.344	334.141	85.810	84.186	108.418	189.420	151.772	141.530	140.408	192.834	142.748	104.479	195.651	86.979	27.606
28.000	334.380	335.048	307.021	228.430	266.985	277.489	278.516	227.713	276.487	313.467	222.891	334.070	85.619	83.971	108.274	189.564	152.225	141.029	141.077	192.500	142.652	105.123	196.105	87.218	34.194
29.000	334.452	335.741	307.451	228.071	266.770	277.895	277.991	228.286	276.654	313.109	222.843	333.616	85.237	83.756	108.179	190.017	152.536	140.981	141.626	192.190	142.581	105.290	196.081	87.218	47.820
30.000	334.786	335.669	307.618	230.316	266.054	276.439	276.463	226.926	275.890	314.804	222.748	333.425	84.687	83.804	107.940	187.224	153.610	142.366	143.154	193.049	142.915	103.762	195.747	87.170	54.542
31.000	334.881	336.361	308.215	234.923	262.258	272.333	272.118	224.896	274.696	315.687	223.034	333.306	85.046	84.210	107.081	182.354	157.358	146.090	147.045	195.007	144.395	102.903	195.651	86.597	45.699
32.000	333.138	336.934	308.095	239.316	258.558	269.062	267.654	224.156	274.386	315.377	222.963	333.544	85.977	83.231	107.033	178.725	161.417	149.408	151.509	194.959	145.040	103.357	195.938	86.812	32.253
33.000	333.902	335.788	309.528	240.868	255.788	268.131	265.935	225.684	274.840	312.703	222.963	332.494	86.884	83.828	106.365	177.102	164.449	151.056	153.562	193.932	143.607	105.553	195.508	87.337	28.102
34.000	331.563	335.669	310.148	240.796	254.857	269.014	266.197	230.984	277.084	308.358	222.748	331.324	87.958	84.759	106.078	177.412	165.547	149.981	153.037	188.847	141.554	109.707	195.460	88.436	37.803
35.000	329.939	335.001	310.053	239.244	254.953	270.757	268.823	237.692	279.566	302.509	223.201	329.295	89.964	84.282	105.696	178.582	164.616	148.048	150.865	182.115	139.358	115.842	195.317	90.131	50.797
36.000	327.624	334.977	309.910	236.117	257.030	273.168	271.712	245.690	281.954	295.562	223.870	327.958	91.539	85.690	106.054	181.232	162.610	145.517	147.236	174.308	137.400	123.267	194.314	91.897	53.234
37.000	325.953	334.284	310.268	233.395	259.441	275.794	275.771	253.115	283.315	287.827	224.204	324.640	94.332	85.284	107.009	184.574	159.913	142.963	143.488	166.621	135.705	131.479	193.550	93.950	41.774
38.000	322.276	333.401	309.122	229.146	262.592	278.277	279.328	259.537	285.033	277.871	224.992	322.491	97.293	86.096	106.460	188.442	156.523	140.074	139.382	159.602	133.915	141.459	193.288	97.221	30.764
39.000	318.432	332.971	309.575	225.398	265.863	281.811	283.434	265.457	286.036	266.842	225.803	319.292	101.494	86.526	107.797	192.834	153.109	137.185	135.562	153.539	132.697	151.724	192.954	99.967	30.404
40.000	313.849	332.231	308.119	222.700	269.563	284.198	286.991	270.208	286.896	255.048	225.780	315.281	105.577	87.051	108.155	195.675	149.552	134.535	131.933	148.286	131.957	163.661	192.524	104.073	40.961
41.000	307.236	332.351	307.140	223.870	273.001	286.705	290.453	274.625	288.089	242.085	225.660	311.247	112.285	88.078	108.943	195.914	146.090	131.957	128.543	144.299	131.241	175.932	192.237	107.821	51.023
42.000	300.050	331.038	306.138	227.307	276.296	289.092	293.509	278.516	288.137	230.316	226.782	307.809	119.495	88.316	109.492	191.879	142.628	129.593	125.344	140.456	130.453	188.609	191.712	111.975	49.399
43.000	290.620	329.247	305.039	232.202	280.116	291.312	296.779	281.715	288.519	219.095	226.591	303.631	129.283	89.343	110.853	186.365	138.880	127.278	122.575	137.328	130.334	200.163	191.521	115.890	39.337
44.000	279.543	329.223	303.535	237.716	282.909	293.747	298.761	283.840	288.662	225.493	226.878	299.763	140.599	90.751	112.381	181.184	135.896	125.105	119.925	134.631	130.166	193.049	191.091	120.331	31.441
45.000	267.367	327.958	301.840	243.159	286.132	295.681	301.100	286.132	289.044	235.281	226.830	296.063	151.796	91.706	113.765	175.001	132.864	123.267	117.919	132.434	129.689	183.547	191.115	123.959	34.419
46.000	255.359	326.812	300.193	248.746	288.686	297.663	303.058	288.471	289.426	244.425	227.642	292.267	164.282	92.709	115.604	169.940	130.262	121.047	115.986	130.405	129.570	174.380	190.924	127.779	44.120
47.000	244.114	325.785	297.495	253.664	290.691	299.286	304.872	290.047	289.331	252.184	227.570	288.352	175.454	94.118	117.967	164.974	128.137	119.280	114.291	128.615	129.761	167.194	190.566	131.002	49.218
48.000	234.517	324.425	295.108	258.462	293.246	301.244	305.994	291.312	289.164	258.701	227.713	285.033	185.242	94.714	120.522	160.462	125.774	117.513	113.001	127.230	129.426	160.414	190.566	134.702	44.481
49.000	226.782	323.064	292.386	262.879	295.275	303.177	307.355	292.721	289.355	264.455	228.453	281.978	193.407	96.481	123.339	155.616	123.649	115.818	111.855	125.941	129.283	154.183	190.328	138.236	37.081
50.000	220.265	321.870	289.068	267.319	297.185	304.896	308.406	293.652	289.617	269.945	228.286	278.397	199.734	97.961	126.538	150.984	121.644	114.004	110.853	124.771	129.140	148.907	190.113	141.554	33.381
51.000	219.334	320.677	285.081	271.879	298.761	305.780	308.931	294.654	289.522	274.147	228.239	274.792	199.996	98.821	130.453	146.830	119.686	112.572	109.922	123.840	129.331	144.323	189.969	144.968	37.848
52.000	224.204	319.674	280.426	275.365	300.408	306.973	309.504	295.395	289.832	277.871	228.191	271.402	196.009	100.253	134.583	143.273	118.492	111.760	109.229	122.957	129.188	141.005	190.041	148.024	44.797
53.000	229.910	318.838	276.606	278.110	301.458	307.904	310.459	296.660	289.808	280.593	228.262	268.418	189.993	101.685	139.000	140.360	116.964	110.614	108.513	122.264	129.211	138.379	189.755	151.199	46.737
54.000	235.974	317.621	271.831	281.070	302.676	309.026	311.056	297.042	289.617	283.219	228.764	265.696	184.120	102.306	144.156	137.663	115.747	109.874	107.964	121.620	129.116	136.087	189.755	153.730	42.135
55.000	241.512	316.499	267.176	283.219	303.893	309.552	311.533	297.519	289.617	284.651	228.764	263.571	178.057	103.571	148.979	135.514	114.696	108.991	107.606	121.142	129.068	134.082	189.659	156.332	36.630
56.000	247.027	315.257	262.807	285.320	304.825	310.053	311.557	298.164	289.951	286.657	228.621	260.587	172.255	104.311	153.706	133.389	113.861	108.537	107.272	120.641	129.020	132.339	189.731	158.791	35.908
57.000	251.945	314.040	258.152	287.134	305.851	310.721	312.154	298.498	289.569	287.731	228.406	258.988	167.600	105.768	158.122	131.742	112.978	107.940	107.033	120.378	129.068	130.978	189.516	160.892	39.969
58.000	256.290	313.252	253.735	288.256	306.376	310.984	312.583	298.880	289.928	288.996	228.883	256.552	163.422	106.866	162.658	130.166	112.572	107.749	106.603	119.710	129.140	129.856	189.373	163.016	45.067
59.000	260.468	311.963	250.274	289.546	306.878	311.175	312.488	299.023	289.689	290.262	228.859	254.714	159.602	108.298	166.788	128.830	111.903	107.487	106.460	119.567	129.092	128.662	189.373	165.451	44.030
60.000	263.571	311.079	246.120	290.524	307.475	311.652	312.942	299.572	289.999	291.026	228.692	252.971	156.141	109.229	170.871	127.898	111.402	107.152	106.245	119.328	129.116	127.755	189.444	167.075	40.059
61.000	266.651	309.289	242.801	291.718	307.785	311.963	313.228	299.477	289.760	291.742	228.979	250.560	153.133	110.471	174.404	126.729	110.901	106.961	105.959	119.018	129.140	126.967	189.396	168.961	36.946
62.000	269.349	308.549	239.793	292.745	308.095	312.225	313.013	300.002	289.737	292.625	229.074	248.674	150.363	111.474	177.531	125.869	110.519	106.627	105.887	118.803	129.020	126.203	189.349	170.727	37.938
63.000	270.948	306.758	236.928	293.509	308.334	312.201	312.965	299.931	289.928	293.747	229.026	247.504	148.597	112.787	180.492	124.938	110.089	106.436	105.792	118.564	129.044	125.559	189.253	172.255	41.954
64.000	273.168	306.376	234.565	293.986	309.050	312.655	313.419	300.121	289.569	293.938	228.931	246.430	146.448	113.956	183.285	124.508	109.898	106.365	105.696	118.349	128.997	124.914	189.349	173.664	44.661
65.000	275.198	304.872	232.774	294.702	308.907	312.488	313.634	300.647	289.832	294.320	229.146	244.854	144.825	115.269	185.792	123.864	109.826	106.293	105.481	118.063	129.020	124.341	189.277	175.096	42.856
66.000	276.940	302.962	230.411	295.371	309.480	312.894	313.514	300.742	289.617	294.941	229.456	243.374	143.034	116.988	187.701	123.171	109.277	106.006	105.553	118.015	129.020	123.912	189.229	176.409	39.472
67.000	278.468	301.936	228.883	295.872	309.456	312.989	313.753	300.766	289.856	295.347	228.907	242.300	141.387	117.895	189.564	122.742	109.158	105.983	105.338	117.776	129.140	123.553	189.158	177.579	37.848
68.000	279.757	300.647	227.642	296.254	309.623	313.180	314.087	301.053	289.760	295.609	229.122	241.321	140.002	119.352	191.091	122.360	108.967	105.744	105.314	117.585	128.973	123.171	189.229	178.677	38.841
69.000	281.190	298.952	226.806	297.066	309.957	313.204	313.801	301.244	289.904	296.087	229.241	239.913	138.594	120.927	192.595	121.858	108.967	105.911	105.243	117.442	128.973	122.599	189.182	179.919	42.811
70.000	282.002	297.328	225.732	296.946	310.148	313.109	314.207	301.411	289.832	296.636	229.050	238.767	137.400	122.312	193.646	121.381	108.776	105.696	105.266	117.418	128.973	122.431	189.086	180.945	43.849
71.000	283.291	296.206	225.039	297.495	310.029	313.419	314.111	301.411	290.262	296.875	229.289	238.003	136.588	123.721	194.649	121.095	108.656	105.553	105.171	117.346	128.949	122.049	189.110	181.948	41.322
72.000	284.174	294.845	224.681	297.710	310.339	313.133	314.111	301.578	289.951	296.708	229.241	237.119	135.514	125.057	195.126	120.784	108.418	105.553	105.195	117.227	128.901	121.715	189.062	182.760	39.157
73.000	285.057	293.079	224.347	298.235	310.363	313.276	313.968	301.530	289.784	297.161	229.480	235.735	134.559	126.538	195.747	120.498	108.251	105.434	104.956	116.988	128.949	121.357	189.134	183.524	38.570
74.000	285.821	292.410	224.228	298.331	310.506	313.252	313.896	302.079	290.333	297.615	229.122	235.496	133.819	127.660	196.033	120.187	108.131	105.481	104.980	116.964	128.877	121.333	189.038	184.216	40.104
75.000	286.943	290.882	224.419	298.641	310.674	313.610	314.278	301.960	289.760	297.639	229.337	234.517	132.983	129.164	196.081	120.116	108.203	105.386	104.932	116.917	128.734	120.856	188.847	185.099	42.947
76.000	287.564	289.450	224.395	298.737	310.745	313.562	314.159	301.864	290.071	298.546	229.337	233.801	132.243	130.286	195.938	119.686	107.964	105.266	104.789	116.917	128.877	120.665	189.134	185.672	42.721
77.000	287.946	288.519	224.610	299.143	310.793	313.443	314.064	302.031	290.023	298.498	229.456	233.085	131.766	131.933	195.699	119.543	107.916	105.290	104.908	116.702	128.973	120.569	188.991	186.365	40.285
78.000	288.519	286.514	224.825	299.405	310.841	313.467	314.183	302.151	290.214	298.450	229.408	232.631	130.835	133.151	195.627	119.256	107.869	105.266	104.932	116.726	129.020	120.378	189.038	187.176	39.112
79.000	289.068	285.248	225.183	299.429	310.841	313.610	314.469	302.175	290.071	299.143	229.408	231.820	130.334	134.583	195.365	119.137	107.845	105.290	104.908	116.678	128.853	120.092	189.110	187.725	38.931
80.000	289.546	284.102	225.923	299.787	310.769	313.586	314.087	302.222	290.071	299.095	229.337	231.533	129.761	135.872	194.792	118.827	107.725	105.171	104.765	116.678	128.925	119.949	188.967	188.394	41.097
81.000	290.429	282.407	225.947	299.692	310.936	313.705	314.517	302.771	290.071	298.880	229.528	230.912	128.925	137.305	194.553	118.755	107.701	105.219	104.813	116.391	128.806	119.758	188.895	188.943	42.766
82.000	290.882	281.309	226.758	299.835	311.056	313.873	314.517	302.151	290.166	299.214	229.337	230.220	128.519	138.641	193.980	118.636	107.630	105.123	104.717	116.391	128.997	119.638	188.943	189.468	41.728
83.000	291.742	279.757	226.902	300.145	311.151	313.777	314.565	302.246	290.142	299.668	229.528	229.528	128.018	139.907	193.694	118.325	107.511	105.028	104.789	116.463	128.973	119.399	188.967	189.802	39.653
84.000	292.219	278.516	227.164	299.859	311.247	313.873	314.374	302.557	290.238	299.190	229.814	229.384	127.755	141.411	193.073	118.301	107.606	104.980	104.646	116.272	128.782	119.352	188.823	190.447	39.066
85.000	292.315	276.917	227.451	300.527	311.151	313.753	314.374	302.509	290.166	299.883	229.504	228.597	127.206	142.772	192.667	118.063	107.463	105.075	104.693	116.344	128.949	119.280	188.847	190.877	39.202
86.000	292.864	275.293	228.501	300.909	311.247	314.159	314.541	302.628	289.999	299.644	229.743	228.358	126.657	143.989	192.166	118.039	107.487	105.099	104.574	116.296	128.949	119.041	188.895	191.330	41.593
87.000	292.792	274.386	228.644	300.503	311.151	313.729	314.231	302.461	290.238	299.978	229.337	227.713	126.466	145.493	191.641	117.919	107.534	104.932	104.574	116.248	128.853	118.970	188.847	191.664	42.315
88.000	293.413	272.954	228.859	300.694	311.342	313.753	314.302	302.437	290.047	300.145	229.384	227.475	126.156	146.782	191.187	117.752	107.272	104.932	104.646	116.177	128.925	118.850	188.752	192.261	41.097
89.000	294.082	271.617	229.599	300.766	311.605	313.944	314.374	302.342	290.166	300.551	229.480	227.236	125.774	148.191	190.590	117.609	107.296	104.980	104.598	116.009	128.830	118.612	188.847	192.739	39.382
