-----------------------------------------------------
BloodHound 307 VOC Analyser V2017.1
RoboScientific Ltd 
Espace North
Wisbech Road
Littleport
Cambridgeshire, UK
CB6 1RA 
-----------------------------------------------------
Date = 21/04/2022
Time = 11:33:36
Data is protected by RoboScientific Limited
-----------------------------------------------------
Name of the experiment = "44b_Day 32"
-----------------------------------------------------
Repeat No. = 2/4
-----------------------------------------------------
Experimental Time (in sec) and Flow Profile :
-----------------------------------------------------
Baseline = 2.00
Absorb = 4.00
Pause = 1.00
Desorb = 5.00
Flush = 20.00
Wait = 5.00
Higher Flow (V) = 4.00
Medium Flow (V) = 3.00
Low Flow (V) = 1.00
-----------------------------------------------------
Total Profile Time = 37 in sec
-----------------------------------------------------
Acquired data point per second = 4
--------------------------------------------------
Total data point stored  = 128
-----------------------------------------------------
Acquired sensor responses from 24 sensors
-----------------------------------------------------

Data Points	 Sen-1	 Sen-2	 Sen-3	 Sen-4	 Sen-5	 Sen-6	 Sen-7	 Sen-8	 Sen-9	 Sen-10	 Sen-11	 Sen-12	 Sen-13	 Sen-14	 Sen-15	 Sen-16	 Sen-17	 Sen-18	 Sen-19	 Sen-20	 Sen-21	 Sen-22	 Sen-23	 Sen-24	Humidity (%r.h.)
0.000	302.342	262.043	249.223	303.941	313.156	313.896	314.828	303.082	290.190	302.628	228.621	222.222	116.797	157.478	169.892	114.577	105.768	104.693	104.264	115.818	128.782	116.272	189.683	197.251	41.007
1.000	302.580	261.447	249.295	304.156	313.133	314.183	314.923	303.034	290.286	302.580	228.477	221.864	116.941	157.764	169.701	114.601	105.625	104.789	104.335	116.057	128.997	116.200	189.564	197.179	41.413
2.000	303.010	261.399	249.796	304.323	313.085	314.111	315.186	302.939	290.190	302.700	229.002	222.055	116.869	158.289	169.725	114.649	105.672	104.980	104.264	115.866	128.806	116.153	189.659	197.346	40.826
3.000	302.366	260.802	249.987	304.252	312.918	314.207	314.804	302.795	290.047	302.748	228.740	221.769	116.678	158.743	169.390	114.505	105.720	104.717	104.311	115.866	128.853	116.224	189.587	197.513	39.563
4.000	303.344	260.444	249.987	304.204	313.395	314.350	315.281	303.082	290.047	302.533	228.597	221.697	116.726	159.149	169.223	114.673	105.720	104.717	104.216	115.866	128.925	116.177	189.587	197.728	39.337
5.000	303.201	259.871	249.916	304.275	313.252	314.302	315.019	302.724	290.023	302.891	228.764	221.482	116.535	159.531	168.961	114.553	105.768	104.789	104.311	115.699	128.853	116.057	189.611	197.872	39.518
6.000	303.034	259.561	250.154	304.371	313.180	314.255	315.019	302.891	290.023	303.058	229.193	221.148	116.391	159.984	168.841	114.458	105.648	104.837	104.264	115.723	128.734	115.986	189.587	197.967	40.691
7.000	303.368	259.155	250.369	304.777	313.276	314.111	315.042	303.153	290.166	303.034	229.050	221.411	116.320	160.486	168.865	114.386	105.815	104.908	104.407	115.818	128.782	115.986	189.587	197.991	41.277
8.000	303.082	258.844	250.417	304.180	313.276	314.183	314.899	302.939	290.500	302.891	228.740	221.291	116.296	160.987	168.674	114.649	105.744	104.884	104.335	115.818	128.877	115.914	189.659	198.086	40.691
9.000	303.177	258.224	250.656	304.156	313.252	314.207	315.066	302.915	290.119	302.915	228.621	221.077	116.033	161.202	168.579	114.386	105.648	104.861	104.264	115.699	128.758	115.914	189.516	198.063	39.563
10.000	300.718	281.023	250.345	304.132	313.324	314.016	314.899	302.795	290.023	301.984	228.477	252.040	117.991	139.859	168.627	114.410	105.768	104.837	104.431	115.938	128.710	116.678	189.802	168.077	39.382
11.000	268.083	302.318	247.266	303.201	312.583	313.180	314.374	301.984	290.787	289.474	226.997	283.195	152.703	117.609	171.611	115.604	106.102	105.243	104.479	116.869	128.113	130.095	191.068	137.448	37.352
12.000	233.634	313.896	239.077	300.694	312.369	312.679	314.255	299.405	290.906	247.385	225.541	299.811	185.672	105.648	180.683	117.919	106.770	106.150	104.789	119.041	127.707	171.730	192.572	121.309	42.631
13.000	258.653	320.462	229.599	297.328	311.414	311.963	314.207	296.994	291.217	221.745	224.586	309.838	158.791	99.417	191.044	121.333	107.248	107.152	105.099	121.978	127.803	197.633	193.550	110.877	50.166
14.000	279.901	324.640	235.568	293.365	310.554	310.220	313.156	294.082	290.978	238.385	224.371	315.759	137.901	94.881	183.022	125.248	108.012	108.036	105.672	124.461	127.922	180.348	193.980	104.861	48.812
15.000	295.705	327.815	246.549	288.065	309.504	309.289	312.918	291.193	289.904	252.948	223.392	320.247	123.100	92.041	169.796	130.572	109.086	109.134	106.197	127.540	128.639	165.237	194.696	100.635	38.976
16.000	306.878	329.581	257.054	281.787	308.382	307.928	312.106	287.779	289.617	264.693	223.488	323.016	112.619	90.704	158.409	136.302	110.160	110.519	106.985	130.763	129.283	153.944	195.126	97.364	29.276
17.000	314.517	330.584	265.982	275.890	307.260	306.639	311.032	283.888	288.686	273.932	222.939	325.547	105.601	88.221	149.098	142.557	111.569	112.285	107.940	135.060	130.357	144.252	195.580	95.311	31.622
18.000	319.483	332.947	272.619	269.659	306.090	304.920	309.981	279.089	287.445	281.214	222.724	327.003	99.394	87.528	141.220	149.361	112.930	114.028	109.158	139.907	131.145	136.994	195.818	93.115	41.954
19.000	322.825	332.637	278.134	262.569	304.395	303.034	308.573	273.932	286.538	286.776	222.055	327.767	95.789	86.550	134.392	156.284	114.768	116.224	110.710	145.135	132.243	131.121	195.771	91.945	52.331
20.000	326.669	333.425	283.171	255.860	302.533	300.527	306.758	268.346	285.368	292.458	222.652	329.247	93.449	85.977	129.164	162.467	116.224	118.110	112.381	150.435	133.318	126.490	196.057	91.706	51.790
21.000	328.388	333.616	287.158	248.961	300.503	297.854	305.135	262.783	284.270	296.469	221.817	329.892	91.993	85.738	124.604	169.247	118.397	120.713	114.123	156.356	134.297	122.073	196.200	90.847	40.104
22.000	329.247	334.046	290.381	242.873	298.092	295.156	302.580	256.505	283.052	299.429	222.079	330.298	90.083	86.096	121.453	175.908	120.689	123.577	116.296	162.300	135.586	118.779	196.511	89.916	29.230
23.000	330.512	334.189	293.007	237.382	295.753	291.861	300.002	250.894	282.049	303.273	222.390	330.680	88.794	85.332	118.373	182.402	123.100	126.681	119.328	168.364	136.755	115.627	195.986	89.510	29.591
24.000	330.703	334.523	296.254	231.270	293.509	288.901	296.755	245.236	280.975	306.257	222.175	331.730	88.030	84.926	116.200	188.203	125.559	129.904	122.455	174.523	138.092	112.978	196.821	89.128	40.781
25.000	332.255	335.287	297.376	227.093	290.763	285.606	293.365	239.960	279.423	307.761	222.175	331.993	87.624	84.544	114.625	192.786	128.328	132.983	126.180	180.396	139.477	110.901	196.415	88.555	51.880
26.000	332.494	335.144	297.877	226.066	289.331	284.866	290.763	238.313	278.922	307.498	222.127	332.780	87.266	84.449	113.741	193.861	129.952	134.249	128.424	181.781	139.811	110.853	196.391	88.722	53.098
27.000	332.446	335.359	298.426	225.947	288.400	284.747	290.023	238.552	279.161	307.236	221.817	332.351	87.075	85.165	113.718	194.028	130.668	133.986	129.116	181.279	139.740	111.259	196.320	88.149	41.774
28.000	332.040	335.072	298.379	226.090	288.042	285.081	289.355	239.220	279.686	306.878	222.270	331.706	87.003	84.687	113.670	193.956	130.883	133.771	129.665	180.492	139.596	111.879	196.224	88.173	30.539
29.000	333.091	335.693	298.474	226.424	288.495	285.224	289.378	240.128	279.113	306.567	222.390	332.088	86.645	85.046	113.431	193.741	130.883	133.365	129.808	180.038	139.477	112.476	196.272	88.030	28.328
30.000	333.616	334.881	299.310	225.087	287.540	284.270	288.137	238.552	279.137	307.403	222.318	332.661	86.335	84.807	113.025	194.434	131.647	134.535	130.978	181.303	139.907	111.235	196.582	88.627	37.532
31.000	333.998	335.741	300.503	224.705	285.511	281.476	285.654	234.374	277.943	309.910	222.342	332.446	86.287	84.306	112.023	195.007	133.915	137.496	133.938	185.720	140.862	108.513	196.200	87.457	49.805
32.000	334.070	335.669	301.053	225.589	282.909	277.561	281.811	229.957	276.439	311.819	222.342	332.852	85.356	84.401	111.378	192.619	136.159	140.623	137.424	189.755	142.604	106.579	196.391	87.123	54.046
33.000	334.237	335.192	302.437	228.048	280.545	275.126	278.086	227.140	275.078	312.106	222.175	332.327	86.072	85.022	110.065	189.229	138.809	143.894	141.053	193.383	143.750	106.293	196.081	87.170	45.248
34.000	333.473	335.765	302.843	230.507	277.752	272.548	275.317	227.737	275.484	310.578	222.366	331.754	86.741	85.738	108.895	187.081	141.482	145.971	144.085	191.951	143.631	107.749	196.176	87.743	32.344
35.000	331.706	334.857	303.440	230.841	276.391	272.691	274.338	232.225	276.773	307.379	221.817	331.300	88.245	85.260	109.158	186.699	142.963	146.233	144.872	187.319	141.936	111.593	196.248	88.722	27.741
36.000	329.534	335.621	302.962	230.172	276.439	274.076	275.627	238.552	278.492	302.342	222.867	329.677	89.152	84.664	109.134	187.391	143.154	144.968	143.655	180.754	139.955	116.463	196.630	90.202	35.592
37.000	328.388	334.810	303.655	228.358	276.678	275.484	277.824	245.380	280.784	295.299	222.891	327.576	91.014	85.213	109.015	188.943	142.342	143.225	141.172	174.117	138.188	122.909	195.747	91.873	48.632
38.000	326.430	333.783	303.488	226.114	278.922	278.349	280.665	251.969	282.336	287.636	223.440	326.000	93.258	85.714	109.635	191.688	140.671	140.862	138.689	167.027	136.350	131.169	194.840	93.855	53.820
39.000	323.828	333.497	303.082	223.965	280.307	280.402	283.649	258.462	283.744	279.017	223.750	324.090	96.027	85.929	110.089	194.267	138.761	138.546	135.633	160.844	134.917	140.504	194.505	96.147	45.473
40.000	320.605	332.852	302.509	223.726	282.193	282.694	286.919	263.929	285.057	268.131	224.013	320.486	98.797	86.812	110.280	195.723	136.541	135.896	132.434	154.852	133.819	151.438	194.100	99.585	33.472
41.000	317.167	332.494	302.366	225.469	284.317	284.986	289.760	269.134	286.227	256.767	224.849	316.809	102.163	87.528	111.163	194.267	134.368	133.628	129.283	149.981	132.721	162.897	193.216	102.354	28.960
42.000	312.010	332.661	300.432	228.668	286.896	287.278	292.721	273.097	287.039	244.831	225.063	313.061	106.794	87.815	111.999	190.184	132.196	131.169	126.514	145.493	131.957	173.855	193.216	105.648	35.322
43.000	306.997	331.014	300.265	233.443	288.805	289.569	295.299	276.940	287.636	232.034	225.780	309.671	111.808	88.316	113.001	186.030	130.095	129.211	123.864	141.817	131.336	186.150	193.001	109.349	46.962
44.000	300.527	330.560	298.904	238.289	291.121	291.646	297.519	279.686	288.042	221.148	225.708	306.066	118.850	89.319	114.338	180.826	127.851	127.111	121.715	139.023	130.859	197.394	192.572	113.001	51.339
45.000	293.604	329.748	296.899	243.350	292.577	293.509	299.501	282.169	288.734	221.936	225.875	303.153	126.323	90.011	115.604	175.550	126.251	125.368	119.423	136.374	130.357	197.394	192.381	116.988	45.518
46.000	284.962	329.390	295.514	247.767	294.440	295.371	301.793	285.010	288.519	230.960	226.567	299.429	134.798	91.086	117.179	170.704	124.246	123.362	117.346	134.010	130.071	187.892	192.309	120.402	36.449
47.000	275.532	328.030	294.296	252.637	296.135	297.090	303.249	286.466	288.686	239.722	226.735	295.657	144.204	92.232	119.185	166.000	122.766	121.500	115.604	132.029	129.999	179.202	191.879	124.031	31.216
48.000	265.863	327.122	291.933	257.173	297.185	298.617	304.729	288.614	289.068	247.170	226.735	292.792	153.634	92.828	121.357	161.560	121.238	119.972	114.171	130.143	129.880	171.420	191.760	127.230	36.043
49.000	255.621	326.287	289.474	261.423	298.737	300.336	305.875	289.856	289.068	254.452	226.806	288.758	163.016	93.783	123.744	157.000	119.590	118.110	112.954	128.543	129.784	163.732	191.450	130.381	43.849
50.000	245.380	324.902	286.490	266.030	300.289	302.103	307.116	291.288	289.164	261.828	226.735	285.201	173.186	95.192	126.824	152.631	118.134	116.272	111.879	127.254	129.737	157.430	191.306	134.034	48.767
51.000	237.000	324.067	282.885	270.471	302.127	304.037	307.856	292.339	289.307	267.296	227.284	282.002	182.497	95.669	130.787	148.501	116.821	114.720	110.901	126.371	129.784	151.724	191.450	137.734	45.067
52.000	229.886	322.682	279.304	273.885	303.368	305.039	309.002	293.532	289.259	271.855	227.045	278.779	189.850	96.767	135.013	144.896	115.580	113.550	110.065	125.177	129.474	147.021	191.139	140.981	38.074
53.000	224.180	322.181	275.007	276.821	304.013	306.018	309.599	294.583	289.378	275.293	227.021	275.699	195.866	97.770	139.238	141.793	114.625	112.524	109.349	124.174	129.402	143.536	191.020	144.132	33.652
54.000	220.647	321.106	270.304	279.447	304.968	307.021	310.411	295.371	289.928	278.421	227.236	273.192	199.710	98.415	143.679	139.334	113.670	111.497	108.585	123.458	129.546	140.551	191.068	146.639	36.134
55.000	219.191	320.390	265.815	282.073	305.875	308.119	310.912	295.896	289.713	280.927	227.379	270.614	200.450	99.704	148.835	136.421	112.858	110.829	108.227	122.837	129.307	138.116	190.805	148.883	42.270
56.000	221.626	318.934	261.232	283.911	306.520	308.549	311.199	296.326	289.307	283.004	227.522	268.394	198.086	100.348	153.658	134.440	112.214	110.017	107.964	122.240	129.307	136.159	190.853	151.557	46.150
57.000	226.400	318.576	256.958	286.156	307.284	309.026	311.676	296.899	289.665	284.484	227.809	266.388	193.383	101.065	158.576	132.912	111.641	109.611	107.463	121.715	129.331	134.511	190.853	153.371	44.481
58.000	232.297	317.358	252.852	287.683	307.546	309.384	311.819	297.257	289.498	285.845	227.427	264.168	187.272	102.497	163.255	131.145	110.877	109.038	107.081	121.333	129.331	133.198	190.590	155.520	40.014
59.000	237.597	316.714	248.292	288.686	308.167	309.957	312.082	297.782	289.832	287.206	228.024	262.019	181.781	103.213	167.385	129.713	110.542	108.656	106.890	120.784	129.307	131.742	190.614	157.573	35.592
60.000	242.730	315.806	244.831	290.166	308.453	310.459	312.583	298.283	289.569	288.352	227.857	260.301	176.505	103.619	171.826	128.615	110.089	108.227	106.627	120.545	129.259	130.572	190.566	159.125	36.404
61.000	247.695	315.257	241.608	291.050	308.740	310.674	312.416	298.570	289.617	289.116	227.737	258.128	171.754	104.646	175.407	127.493	109.778	108.012	106.532	120.259	129.092	129.355	190.256	160.987	40.826
62.000	251.754	314.469	238.074	291.670	309.265	310.841	312.560	298.546	290.047	290.310	228.071	257.054	167.815	105.410	178.749	126.538	109.468	107.773	106.245	119.949	129.140	128.686	190.399	162.563	45.067
63.000	255.741	313.491	235.520	293.007	309.504	311.199	312.989	299.071	289.760	290.811	228.239	255.669	164.162	106.508	182.020	125.726	109.182	107.678	106.174	119.519	129.140	127.946	190.518	164.114	44.210
64.000	259.011	313.204	233.061	293.986	309.742	311.557	312.822	299.381	289.593	291.432	228.000	254.046	160.629	107.057	184.741	124.843	108.967	107.343	106.030	119.495	129.235	127.254	190.280	165.523	41.052
65.000	262.187	312.225	231.223	294.440	309.981	311.891	313.347	299.405	289.713	292.386	228.119	252.446	157.597	107.415	187.463	124.413	108.776	107.296	105.839	119.209	129.164	126.681	190.447	167.003	37.487
66.000	264.956	311.127	229.217	295.299	310.220	311.700	313.347	299.453	289.522	292.816	228.024	250.966	154.589	108.489	189.468	123.577	108.370	107.009	105.983	119.161	129.235	125.965	190.280	168.316	36.946
67.000	267.391	310.960	228.000	295.538	310.650	311.915	313.586	299.954	289.665	293.365	228.048	250.250	152.202	109.206	191.044	123.148	108.465	106.818	105.696	118.922	129.140	125.416	190.184	169.701	39.924
68.000	269.229	309.766	226.949	296.182	310.721	312.058	313.371	299.835	289.904	293.819	227.952	248.698	150.220	109.683	192.524	122.718	108.036	106.747	105.577	118.731	129.307	125.153	190.280	170.775	44.120
69.000	271.569	309.361	226.544	296.469	310.745	312.297	313.586	300.074	289.569	294.416	227.904	247.552	148.406	110.399	193.622	122.121	108.131	106.508	105.577	118.683	129.140	124.508	190.184	171.873	43.623
70.000	273.455	308.573	226.138	297.209	310.984	312.201	313.682	300.551	289.808	294.822	228.048	246.645	146.329	110.662	194.338	121.739	107.869	106.388	105.434	118.564	129.020	124.031	190.280	172.972	41.322
71.000	274.696	308.429	226.090	297.018	310.721	312.440	313.753	300.599	289.546	294.798	228.430	245.475	144.729	111.474	194.625	121.285	107.725	106.436	105.362	118.373	129.140	123.935	190.113	174.094	38.480
72.000	276.129	307.713	226.448	297.806	311.056	312.416	314.016	300.766	289.832	295.108	228.191	244.759	143.583	111.999	194.840	120.927	107.725	106.245	105.243	118.254	129.092	123.530	190.160	174.738	37.623
73.000	277.561	307.451	226.162	298.021	311.199	312.464	314.183	300.647	289.641	295.824	228.525	243.756	142.032	112.524	194.481	120.689	107.701	106.221	105.290	118.086	129.092	123.219	190.184	175.860	39.653
74.000	279.161	306.329	226.878	298.140	311.079	312.894	314.398	301.172	289.808	296.039	228.549	242.586	140.480	113.025	194.123	120.450	107.558	106.174	105.195	117.967	129.068	122.981	190.041	176.696	43.127
75.000	280.163	305.947	227.307	298.474	311.461	312.679	313.944	301.005	289.737	296.206	228.071	241.584	139.644	113.670	193.503	120.116	107.391	106.054	105.099	117.943	129.068	122.646	189.969	177.627	44.165
76.000	281.094	305.517	227.928	298.808	311.533	313.013	314.326	300.885	289.689	296.564	228.525	241.321	138.689	114.362	193.049	119.805	107.296	106.006	105.075	117.824	129.164	122.503	189.898	178.224	41.774
77.000	282.264	304.610	228.430	299.167	311.987	313.013	313.992	300.814	289.784	296.564	228.621	239.889	137.710	115.174	192.500	119.638	107.176	106.006	105.075	117.728	129.044	122.193	189.922	179.107	39.337
78.000	282.718	304.299	228.764	299.310	311.294	312.631	313.992	301.029	289.951	296.875	228.430	239.722	136.803	115.723	191.641	119.328	107.224	105.815	105.052	117.752	129.092	121.930	189.993	179.943	38.119
79.000	284.031	303.798	229.337	299.405	311.652	313.180	314.255	301.029	289.975	297.304	228.262	238.767	135.872	116.081	190.948	119.137	107.152	105.863	104.980	117.704	128.997	121.763	189.898	180.277	39.066
80.000	284.365	302.867	230.292	299.668	311.748	312.727	314.087	301.196	289.880	297.519	228.525	238.647	135.156	116.678	190.304	118.922	106.938	105.839	105.099	117.537	129.068	121.524	190.017	181.160	42.135
81.000	285.320	302.819	230.602	300.121	311.819	313.013	314.207	301.387	290.023	297.567	228.119	237.669	134.392	117.490	189.492	118.803	107.129	105.601	104.980	117.609	129.092	121.405	189.874	181.638	43.623
82.000	286.108	302.079	231.414	299.978	311.748	312.942	314.326	301.100	290.119	297.925	228.453	236.952	133.676	117.704	189.110	118.588	107.009	105.768	104.861	117.394	128.973	121.095	189.850	182.163	41.999
83.000	286.752	301.721	231.270	299.954	311.748	313.300	314.469	301.315	289.904	297.591	228.310	236.475	133.413	118.421	188.632	118.540	106.938	105.625	104.884	117.370	129.140	120.999	189.778	182.783	39.518
84.000	286.752	300.862	231.891	300.098	311.819	313.204	314.231	301.387	289.665	297.973	228.358	236.666	132.506	118.898	187.725	118.373	106.866	105.505	104.980	117.251	129.068	120.856	189.922	183.333	38.525
85.000	287.731	300.002	232.607	300.527	312.010	313.538	314.183	301.387	289.784	298.379	228.597	235.663	131.766	119.137	187.128	118.086	107.009	105.481	104.622	117.203	128.997	120.641	189.778	183.571	38.931
86.000	288.901	299.859	233.180	300.694	311.843	312.965	314.302	301.626	290.190	298.737	228.477	235.138	131.241	119.972	186.746	118.063	106.866	105.553	104.717	117.251	128.949	120.641	189.874	184.216	41.638
87.000	288.758	299.214	233.897	300.671	311.915	313.109	313.992	301.578	290.071	298.761	228.310	234.446	130.739	120.545	186.054	117.776	106.699	105.553	104.813	117.322	128.973	120.426	189.778	184.622	43.127
88.000	289.450	298.594	234.374	301.076	312.201	313.324	314.087	301.506	289.832	298.713	228.143	234.517	130.525	120.832	185.624	117.776	106.699	105.625	104.789	117.203	128.925	120.307	189.850	185.123	42.089
89.000	289.593	298.235	234.947	300.814	312.034	313.228	314.517	301.602	289.808	298.880	228.812	234.350	129.808	121.667	185.242	117.633	106.794	105.648	104.789	117.084	128.901	120.187	189.826	185.338	39.563
