-----------------------------------------------------
BloodHound 307 VOC Analyser V2017.1
RoboScientific Ltd 
Espace North
Wisbech Road
Littleport
Cambridgeshire, UK
CB6 1RA 
-----------------------------------------------------
Date = 21/04/2022
Time = 12:11:55
Data is protected by RoboScientific Limited
-----------------------------------------------------
Name of the experiment = "44b_Day 40"
-----------------------------------------------------
Repeat No. = 1/4
-----------------------------------------------------
Experimental Time (in sec) and Flow Profile :
-----------------------------------------------------
Baseline = 2.00
Absorb = 4.00
Pause = 1.00
Desorb = 5.00
Flush = 20.00
Wait = 5.00
Higher Flow (V) = 4.00
Medium Flow (V) = 3.00
Low Flow (V) = 1.00
-----------------------------------------------------
Total Profile Time = 37 in sec
-----------------------------------------------------
Acquired data point per second = 4
--------------------------------------------------
Total data point stored  = 128
-----------------------------------------------------
Acquired sensor responses from 24 sensors
-----------------------------------------------------

Data Points	 Sen-1	 Sen-2	 Sen-3	 Sen-4	 Sen-5	 Sen-6	 Sen-7	 Sen-8	 Sen-9	 Sen-10	 Sen-11	 Sen-12	 Sen-13	 Sen-14	 Sen-15	 Sen-16	 Sen-17	 Sen-18	 Sen-19	 Sen-20	 Sen-21	 Sen-22	 Sen-23	 Sen-24	Humidity (%r.h.)
0.000	307.355	224.204	249.056	305.254	313.133	314.708	315.162	304.371	290.596	305.207	230.125	219.381	112.118	196.057	169.987	113.431	105.577	104.097	104.001	114.625	128.853	113.718	188.012	200.903	40.285
1.000	307.475	224.538	249.080	305.636	313.467	314.851	315.019	304.252	290.166	304.968	230.650	219.477	112.070	195.675	170.083	113.503	105.577	104.168	104.001	114.553	128.615	113.574	187.940	200.784	40.646
2.000	307.713	224.801	249.677	305.374	313.347	315.114	315.424	304.323	290.310	305.302	230.244	219.572	112.023	195.627	169.987	113.383	105.577	104.049	103.858	114.482	128.710	113.574	187.964	200.856	40.826
3.000	307.498	224.681	249.510	305.087	313.562	315.138	315.138	304.347	290.572	305.445	230.483	219.525	111.688	195.532	169.892	113.407	105.457	104.144	104.073	114.601	128.734	113.598	187.988	200.880	40.239
4.000	307.642	224.872	249.534	305.111	313.300	315.066	315.400	304.323	290.500	305.254	230.268	219.501	111.999	195.245	169.701	113.455	105.553	104.264	104.216	114.553	128.639	113.622	187.940	200.760	39.833
5.000	307.331	225.230	249.534	304.896	313.252	314.613	315.281	304.132	290.095	305.230	229.886	219.310	111.879	195.269	169.772	113.455	105.577	104.120	104.097	114.577	128.686	113.503	187.916	200.880	39.653
6.000	307.498	225.421	249.462	304.825	313.037	314.947	315.281	304.395	290.548	305.541	230.530	219.763	111.855	194.887	169.725	113.360	105.577	104.288	104.144	114.434	128.615	113.622	187.916	200.832	40.149
7.000	307.689	225.374	249.725	305.350	313.228	314.804	315.090	304.180	290.286	305.135	230.363	219.596	111.736	194.911	169.534	113.383	105.625	104.120	103.906	114.482	128.710	113.574	187.988	200.712	40.646
8.000	307.713	225.684	249.820	305.183	313.347	314.732	315.400	304.228	290.310	305.612	230.507	219.453	111.808	194.672	169.558	113.169	105.577	104.240	104.025	114.529	128.615	113.598	187.964	200.880	40.871
9.000	307.403	225.660	250.130	305.421	313.467	314.565	315.186	304.252	290.262	305.207	230.578	219.572	112.190	194.410	169.367	113.288	105.529	104.240	104.144	114.696	128.662	113.550	187.892	200.736	40.194
10.000	306.138	243.016	249.558	305.398	313.395	314.923	315.162	304.108	290.644	304.466	229.862	248.340	113.264	175.812	169.725	113.574	105.577	104.216	104.001	114.720	128.591	114.577	188.298	171.253	39.833
11.000	274.983	284.771	245.499	303.679	312.488	313.968	315.114	302.748	291.073	290.548	228.668	283.911	142.939	134.368	172.948	114.482	105.935	104.622	104.144	115.818	127.970	127.397	189.826	136.564	43.172
12.000	230.960	305.493	234.756	300.957	311.987	313.419	314.851	300.145	291.217	241.846	227.260	301.339	187.105	113.550	184.431	117.155	106.675	105.362	104.502	118.397	127.469	176.218	191.330	118.731	38.886
13.000	260.110	316.833	231.032	297.472	311.008	312.345	314.374	296.803	291.264	228.430	225.923	311.963	160.080	102.903	187.797	120.975	107.630	106.174	104.837	121.787	127.660	190.256	192.309	109.349	30.900
14.000	282.073	323.040	245.642	292.721	309.647	311.223	313.896	293.509	290.739	246.287	225.039	318.958	137.854	97.006	172.255	126.060	108.776	107.439	105.434	125.177	127.946	172.255	192.858	102.712	33.787
15.000	297.639	327.218	258.892	286.490	308.620	309.838	312.965	289.569	290.166	261.184	224.228	322.586	120.331	93.163	157.311	132.434	110.137	108.752	106.174	129.092	128.758	156.976	193.431	98.391	44.616
16.000	308.573	329.677	268.800	278.683	307.045	308.453	311.939	285.368	289.546	272.118	224.085	325.976	109.397	90.441	146.138	140.289	111.999	110.304	106.938	133.485	129.474	145.016	194.171	95.598	53.324
17.000	316.714	330.393	276.606	270.877	304.777	306.376	310.865	280.211	288.591	282.097	223.703	327.886	102.211	87.887	137.328	147.188	113.718	111.951	108.107	138.665	130.477	136.206	194.529	93.449	48.902
18.000	321.966	332.685	283.147	262.712	302.318	304.419	309.384	273.837	287.063	288.829	223.130	329.271	96.935	87.528	130.262	155.520	116.200	114.171	109.468	144.562	131.575	128.591	194.720	91.897	36.810
19.000	325.547	333.353	288.805	255.335	299.835	301.769	307.522	267.296	285.869	294.989	223.679	330.680	94.380	86.573	125.392	163.637	118.922	116.797	111.306	151.390	132.983	123.362	194.863	90.966	28.373
20.000	328.316	333.449	292.697	247.648	297.042	298.856	305.541	260.897	284.628	299.310	223.153	331.300	90.871	85.571	120.474	171.420	122.049	119.925	113.598	158.552	134.273	119.041	195.054	90.178	32.344
21.000	330.465	334.404	295.872	239.865	293.676	295.753	302.628	253.425	283.243	303.488	222.795	332.040	88.913	86.096	116.988	179.465	125.248	123.171	116.487	166.024	135.681	114.553	195.174	89.558	45.518
22.000	331.276	335.192	298.092	232.918	290.691	292.124	299.501	247.003	281.333	307.069	222.915	332.709	88.078	84.687	114.911	186.460	128.806	126.657	119.758	173.282	137.376	111.259	195.293	88.173	54.226
23.000	332.255	335.765	300.694	226.997	286.323	288.376	295.204	240.008	280.020	309.504	222.915	333.138	87.266	84.759	112.810	192.428	132.673	130.047	123.673	179.847	138.427	108.561	195.532	88.483	49.850
24.000	333.449	335.144	303.153	224.801	281.954	284.317	290.668	233.825	278.397	311.796	222.963	332.828	86.502	84.258	110.519	194.362	137.233	133.938	128.042	186.221	140.241	106.221	195.389	87.815	37.036
25.000	334.070	335.287	304.013	226.185	277.107	280.903	286.323	229.026	276.654	313.419	222.724	333.783	86.215	83.685	109.659	191.879	141.888	137.734	133.342	191.378	142.079	104.526	195.508	87.648	27.787
26.000	334.070	336.123	304.228	226.782	274.625	279.280	283.052	227.713	276.511	313.705	223.440	333.449	86.120	83.804	109.373	191.593	145.589	139.525	136.803	192.572	142.700	104.813	195.532	87.409	32.028
27.000	333.926	335.669	305.421	226.257	273.144	279.352	280.975	228.621	277.060	313.419	222.891	334.117	85.738	84.353	108.824	191.712	146.520	139.000	137.997	192.118	142.557	105.028	195.914	87.767	44.616
28.000	333.401	335.693	305.493	225.684	272.476	279.901	280.712	228.740	276.702	312.751	222.891	334.189	85.786	84.162	108.824	191.951	146.949	138.761	138.570	191.712	142.270	105.839	195.580	86.669	54.362
29.000	333.711	335.717	305.589	225.493	272.166	280.450	280.187	229.265	276.773	312.774	223.249	334.093	85.475	84.019	109.277	192.476	147.164	138.498	139.000	191.211	142.246	105.625	195.365	86.764	50.301
30.000	335.335	336.409	306.114	228.024	270.900	278.015	278.301	227.355	276.129	314.231	223.034	332.804	84.855	84.711	108.633	189.707	148.430	140.002	140.623	192.237	142.939	103.953	195.890	87.361	37.713
31.000	335.144	336.003	307.116	232.679	267.463	274.672	274.386	225.016	274.362	315.735	222.867	333.831	84.616	84.258	108.155	185.028	151.676	144.013	145.159	194.863	144.323	102.473	195.556	86.215	28.102
32.000	334.786	336.242	308.119	237.478	263.834	270.972	269.850	224.634	273.288	316.379	223.130	333.926	85.046	83.900	107.534	180.492	156.260	147.785	149.671	194.481	145.708	102.043	195.699	86.526	31.171
33.000	333.998	336.123	308.716	240.271	259.561	269.038	266.030	224.658	273.455	314.899	223.225	332.947	85.762	84.210	106.436	177.603	159.984	150.292	153.491	194.744	145.326	103.977	195.771	86.812	43.759
34.000	332.828	334.953	308.668	241.035	257.985	268.418	265.266	226.806	275.484	311.461	222.963	332.184	87.099	84.497	106.961	176.839	162.515	150.411	154.040	193.192	143.727	106.842	195.317	87.648	53.865
35.000	331.515	335.908	309.766	240.151	257.102	269.778	266.794	232.560	277.466	307.188	223.464	330.894	88.603	84.497	106.054	177.675	162.515	149.026	152.440	187.654	141.100	111.999	195.436	88.627	50.527
36.000	330.083	335.550	309.074	238.003	258.773	272.046	269.778	239.793	279.853	300.981	223.559	329.295	90.155	84.592	106.890	179.656	161.106	147.045	149.623	179.775	138.880	118.086	194.792	91.157	38.660
37.000	327.433	334.308	309.026	235.090	260.921	274.290	273.121	247.361	281.715	293.055	224.586	326.239	91.706	85.284	106.579	182.760	158.838	144.323	145.827	172.303	136.875	125.893	193.980	92.590	28.869
38.000	323.923	334.284	309.122	231.461	263.667	277.060	277.036	254.404	283.625	284.270	224.992	324.258	95.049	85.977	107.200	186.436	155.616	141.554	142.079	164.640	135.180	134.249	193.598	95.359	31.261
39.000	321.273	333.473	307.809	226.926	266.746	279.901	280.927	261.232	285.153	274.338	225.398	320.724	98.486	86.168	107.272	190.447	152.273	138.618	137.901	157.955	133.628	144.705	193.049	98.558	42.495
40.000	317.310	332.518	307.069	223.535	270.495	282.933	285.272	266.651	285.965	262.736	226.281	317.597	102.067	86.764	108.322	194.505	148.931	136.278	134.225	152.631	132.602	155.783	192.786	101.876	52.016
41.000	312.870	331.921	306.711	222.748	273.932	285.415	288.495	271.831	287.087	250.942	226.090	313.180	106.579	87.170	108.728	196.153	145.231	133.485	130.548	147.522	131.861	167.886	192.357	105.696	49.534
42.000	306.400	331.825	305.970	225.923	277.466	287.994	292.124	275.675	287.683	238.886	226.520	309.504	113.598	88.627	109.397	193.550	141.984	131.121	127.158	143.034	131.121	180.707	191.951	109.659	39.247
43.000	298.999	330.274	304.825	230.793	280.116	290.071	295.013	279.041	288.185	226.305	226.806	305.827	120.760	89.247	110.733	188.489	138.355	128.639	123.983	139.429	130.620	192.786	191.497	113.861	30.900
44.000	289.808	329.677	303.464	235.711	283.529	292.506	297.949	282.407	288.805	218.713	227.045	301.315	129.641	89.223	112.094	182.497	135.395	126.347	121.214	136.350	130.262	199.901	191.306	117.872	33.111
45.000	279.089	328.961	302.676	241.584	286.657	294.535	300.050	284.938	288.734	228.143	227.021	297.854	140.241	91.324	112.978	176.433	132.148	124.126	118.659	133.795	130.143	190.280	190.757	122.002	42.225
46.000	267.558	327.266	300.408	247.218	289.474	296.588	302.270	287.397	289.211	237.860	227.666	293.413	151.700	91.969	115.007	171.348	129.546	122.264	116.941	131.718	129.808	181.590	190.996	126.084	49.399
47.000	256.839	326.287	298.379	252.780	291.861	298.403	303.941	288.925	289.784	246.191	227.475	289.426	163.207	93.640	117.012	166.239	127.206	120.187	115.055	129.832	129.737	172.781	190.662	129.928	47.504
48.000	246.120	324.687	296.111	257.531	293.676	300.289	305.398	290.572	289.665	253.688	228.143	286.060	173.688	94.022	118.970	161.011	124.867	118.468	113.622	128.280	129.617	165.571	190.399	133.747	40.330
49.000	237.597	324.258	293.174	262.163	295.562	301.745	306.639	292.196	289.569	259.847	228.000	283.195	182.927	95.287	121.691	156.069	122.909	116.487	112.381	126.776	129.283	158.719	190.137	137.114	33.652
50.000	229.313	323.279	290.811	266.555	297.758	304.061	307.833	293.031	289.378	266.484	227.880	279.065	190.160	96.911	124.461	151.485	120.904	114.625	111.163	125.583	129.474	152.536	190.089	140.504	34.419
51.000	222.891	321.608	286.848	271.211	299.549	305.565	308.620	294.368	289.569	271.211	228.024	275.985	196.248	97.579	128.161	147.140	118.970	113.073	110.232	124.270	129.355	147.666	189.993	144.085	40.646
52.000	219.381	320.581	282.789	274.911	301.363	306.591	309.719	295.275	289.522	275.198	228.597	272.261	200.068	99.250	131.647	143.679	117.752	111.927	109.349	123.553	129.235	143.965	189.922	147.403	46.466
53.000	221.053	319.578	279.161	277.824	302.294	307.761	310.483	296.159	289.760	278.134	228.525	269.468	199.208	100.134	136.302	140.623	116.320	110.877	108.585	122.790	129.331	140.742	189.731	150.841	46.015
54.000	226.567	318.791	274.410	280.832	303.512	308.788	310.745	296.517	289.641	280.856	228.453	267.033	193.479	101.327	141.077	137.710	115.317	110.017	108.155	122.002	129.164	138.069	189.683	153.204	41.277
55.000	232.106	317.287	269.993	282.885	304.562	309.289	311.199	297.090	290.119	283.147	228.788	264.144	187.105	102.020	145.493	135.538	114.100	109.253	107.582	121.405	129.211	135.824	189.659	155.663	36.089
56.000	238.814	316.594	265.386	284.962	305.159	310.315	312.058	297.997	289.713	284.819	229.098	261.661	180.802	103.094	150.292	133.389	113.240	108.561	107.272	120.856	129.188	134.082	189.516	157.955	35.863
57.000	244.067	315.281	261.112	286.752	306.042	310.506	311.915	298.235	289.999	286.227	229.313	259.561	175.359	104.335	154.875	131.623	112.452	108.131	107.009	120.426	129.211	132.506	189.420	160.271	39.924
58.000	249.414	314.684	256.505	289.068	306.711	310.888	312.201	298.641	289.904	288.065	228.907	257.054	170.680	105.648	159.125	130.095	111.927	107.725	106.699	120.020	129.235	131.002	189.373	162.467	44.751
59.000	253.234	312.989	253.091	289.880	307.045	311.366	312.846	298.856	289.904	288.949	228.740	255.311	166.478	106.818	163.327	128.686	111.283	107.296	106.412	119.877	129.235	129.952	189.325	164.687	44.390
60.000	256.982	312.201	249.438	291.097	307.642	311.652	312.965	299.358	289.569	289.832	229.122	252.852	162.396	107.773	167.433	127.612	110.877	107.105	106.269	119.352	128.997	128.877	189.182	166.573	41.232
61.000	260.301	311.223	245.666	291.837	308.334	311.963	312.894	299.549	289.498	290.882	229.146	251.420	159.268	109.015	171.253	126.657	110.566	106.699	105.983	119.018	129.164	128.209	189.182	168.650	37.623
62.000	263.428	309.742	242.372	293.007	308.477	312.321	313.156	299.740	289.498	291.742	229.456	249.319	155.854	110.208	174.762	125.439	109.993	106.436	105.839	118.803	129.140	127.134	189.134	170.250	37.171
63.000	266.054	308.429	239.268	293.532	309.050	312.512	313.514	300.265	289.808	292.506	229.193	247.743	153.395	111.092	177.603	124.795	109.611	106.317	105.815	118.516	129.044	126.347	189.205	171.778	39.833
64.000	268.418	307.236	236.690	294.416	309.289	313.061	313.395	300.241	289.522	293.055	229.480	246.335	151.318	112.046	180.492	124.174	109.397	106.221	105.696	118.445	129.116	125.917	189.086	173.234	43.939
65.000	270.113	306.520	234.470	295.132	309.480	312.703	313.514	300.599	289.832	293.843	228.955	244.974	149.456	113.312	183.452	123.553	109.182	105.959	105.457	118.230	128.997	125.153	189.229	174.690	43.669
66.000	272.763	305.183	232.512	295.753	310.077	313.156	313.944	300.551	289.713	294.201	229.361	243.422	147.379	114.577	185.672	122.909	109.086	105.911	105.434	117.872	129.044	124.652	189.086	176.171	41.007
67.000	274.123	304.777	230.483	296.111	309.910	313.013	313.705	300.981	290.023	294.654	229.241	242.563	145.613	115.795	187.630	122.312	108.752	105.768	105.266	117.848	129.068	124.270	189.134	177.627	38.525
68.000	275.556	302.771	228.788	297.137	310.124	312.989	313.801	300.885	290.023	294.893	228.931	240.963	144.299	117.084	189.468	121.954	108.633	105.720	105.266	117.657	129.020	123.530	189.014	178.582	38.164
69.000	276.558	301.458	227.785	297.686	310.101	313.061	313.801	301.267	290.310	295.920	229.432	240.032	142.772	118.349	191.044	121.309	108.298	105.434	105.243	117.537	128.997	123.315	188.943	179.775	39.788
70.000	278.230	300.718	226.544	297.782	310.626	313.252	314.207	301.339	289.713	295.729	229.170	239.053	141.650	119.710	192.428	121.071	108.131	105.505	105.028	117.418	129.188	122.981	189.014	180.707	43.262
71.000	279.590	298.928	225.708	297.877	310.387	313.586	313.992	301.578	290.190	296.469	229.719	238.170	140.241	120.736	193.407	120.665	108.083	105.434	105.052	117.275	129.044	122.694	188.895	181.733	43.578
72.000	280.474	297.400	225.016	298.450	310.554	313.371	313.896	301.387	289.832	296.708	229.671	236.976	139.167	122.240	194.314	120.378	108.012	105.434	105.052	117.084	128.949	122.312	188.943	182.640	40.916
73.000	281.739	296.731	224.825	298.379	310.459	313.658	314.255	301.888	290.047	296.899	229.361	236.141	138.307	123.577	195.007	120.092	108.060	105.338	104.932	117.012	128.997	122.049	188.991	183.476	39.202
74.000	282.145	295.442	224.658	299.071	311.008	313.777	314.159	301.649	289.784	297.113	229.528	235.448	137.328	124.890	195.436	119.567	107.630	105.195	105.052	117.012	129.020	121.835	188.800	184.192	38.660
75.000	283.004	293.867	224.872	299.095	311.175	314.159	314.087	301.817	290.023	297.304	229.217	234.732	136.517	126.060	195.723	119.567	107.678	105.195	104.908	116.917	129.092	121.524	188.823	184.932	39.833
76.000	284.102	292.601	224.610	299.238	311.318	313.849	314.255	301.912	289.856	297.281	229.552	233.992	135.705	127.421	195.795	119.137	107.534	105.243	104.956	116.988	129.068	121.190	188.823	185.792	42.721
77.000	284.962	291.408	224.968	299.668	311.175	313.920	314.255	301.936	289.975	298.045	229.743	233.562	135.180	128.400	195.914	119.041	107.630	105.147	104.789	116.750	128.901	120.975	188.871	186.365	42.902
78.000	285.320	290.238	224.801	299.549	310.912	313.658	314.374	302.055	290.238	298.212	229.480	232.584	134.010	129.808	195.627	118.874	107.463	105.123	104.813	116.702	128.997	120.760	188.776	186.890	40.826
79.000	286.370	288.614	225.254	299.931	311.390	313.896	314.326	301.912	289.880	298.045	229.957	232.321	133.485	130.859	195.460	118.683	107.415	105.123	104.789	116.630	128.901	120.689	188.632	187.534	39.292
80.000	287.182	287.636	225.302	299.954	311.223	314.111	314.398	302.389	290.238	298.426	229.599	231.772	132.936	132.196	195.078	118.468	107.320	105.052	104.765	116.582	128.949	120.378	188.680	188.060	39.021
81.000	287.540	286.466	225.875	300.050	311.414	313.849	314.469	302.318	290.095	298.976	229.814	231.127	132.482	133.676	194.816	118.277	107.296	105.075	104.646	116.463	129.020	120.331	188.776	188.728	39.833
82.000	288.352	285.248	226.472	300.551	311.772	314.159	314.613	302.509	289.808	298.665	229.480	230.387	131.479	134.726	194.529	118.254	107.367	104.956	104.717	116.487	128.949	120.092	188.680	189.229	42.315
83.000	288.805	284.055	226.902	300.694	311.581	313.944	314.660	302.413	289.975	298.976	229.838	229.790	131.002	135.992	193.980	118.158	107.296	104.765	104.693	116.439	128.949	119.901	188.632	189.564	42.586
84.000	289.617	282.861	227.355	300.718	311.461	313.682	314.326	302.604	290.071	299.214	229.719	229.384	130.716	137.424	193.503	117.872	107.224	104.956	104.717	116.368	128.949	119.734	188.704	190.113	40.826
85.000	289.784	281.405	227.522	300.599	311.581	313.801	314.541	302.389	290.214	299.286	229.743	229.098	129.928	138.713	193.073	117.728	107.176	105.004	104.598	116.224	128.973	119.614	188.632	190.733	39.337
86.000	290.286	279.805	228.024	301.053	312.106	313.992	314.422	302.318	289.999	299.167	229.599	228.644	129.474	140.002	192.476	117.681	107.105	104.908	104.622	116.224	128.997	119.519	188.513	191.044	39.337
87.000	290.190	278.444	228.358	301.196	311.867	313.944	314.589	302.461	289.760	299.716	229.719	228.453	129.211	141.148	192.142	117.513	107.057	104.956	104.693	116.153	128.901	119.328	188.561	191.473	39.833
88.000	290.882	277.155	228.788	301.315	311.628	313.944	314.446	302.700	290.071	299.525	229.886	227.809	128.686	142.413	191.450	117.346	107.033	104.980	104.574	116.105	128.925	119.185	188.465	191.808	41.954
89.000	291.503	276.057	229.146	301.435	311.748	313.777	314.613	302.819	290.023	299.668	229.910	227.260	128.400	143.583	191.211	117.275	106.866	104.813	104.598	116.177	128.925	119.137	188.609	192.023	42.315
