-----------------------------------------------------
BloodHound 307 VOC Analyser V2017.1
RoboScientific Ltd 
Espace North
Wisbech Road
Littleport
Cambridgeshire, UK
CB6 1RA 
-----------------------------------------------------
Date = 21/04/2022
Time = 11:24:12
Data is protected by RoboScientific Limited
-----------------------------------------------------
Name of the experiment = "44b_Day 29"
-----------------------------------------------------
Repeat No. = 4/4
-----------------------------------------------------
Experimental Time (in sec) and Flow Profile :
-----------------------------------------------------
Baseline = 2.00
Absorb = 4.00
Pause = 1.00
Desorb = 5.00
Flush = 20.00
Wait = 5.00
Higher Flow (V) = 4.00
Medium Flow (V) = 3.00
Low Flow (V) = 1.00
-----------------------------------------------------
Total Profile Time = 37 in sec
-----------------------------------------------------
Acquired data point per second = 4
--------------------------------------------------
Total data point stored  = 128
-----------------------------------------------------
Acquired sensor responses from 24 sensors
-----------------------------------------------------

Data Points	 Sen-1	 Sen-2	 Sen-3	 Sen-4	 Sen-5	 Sen-6	 Sen-7	 Sen-8	 Sen-9	 Sen-10	 Sen-11	 Sen-12	 Sen-13	 Sen-14	 Sen-15	 Sen-16	 Sen-17	 Sen-18	 Sen-19	 Sen-20	 Sen-21	 Sen-22	 Sen-23	 Sen-24	Humidity (%r.h.)
0.000	301.339	245.523	249.223	305.684	313.944	314.971	315.114	303.297	289.975	302.962	229.790	219.763	117.704	173.783	169.629	113.264	105.052	103.953	103.977	115.389	129.044	115.747	188.513	199.447	40.014
1.000	301.960	245.475	249.701	305.398	313.896	314.923	315.162	303.201	289.904	303.010	229.528	219.835	117.943	173.974	169.653	113.288	104.980	103.858	103.858	115.460	129.044	115.914	188.561	199.447	40.555
2.000	301.984	245.141	249.868	305.302	313.801	315.281	315.448	303.392	290.238	303.512	229.504	219.859	117.800	174.189	169.677	113.192	105.052	103.929	104.001	115.556	129.116	115.986	188.656	199.519	41.007
3.000	301.506	244.878	249.629	305.398	313.825	314.899	315.233	303.082	289.904	303.249	229.814	219.787	117.561	174.523	169.271	113.169	104.884	103.906	103.810	115.460	129.020	115.866	188.609	199.567	40.239
4.000	301.960	244.425	249.749	305.803	313.801	315.138	315.257	303.344	290.190	303.249	229.814	219.620	117.561	174.619	169.343	113.145	104.908	103.810	104.001	115.556	129.068	115.747	188.513	199.614	39.788
5.000	301.984	244.329	250.107	305.899	313.920	315.162	315.353	303.464	289.928	303.249	230.053	219.620	117.633	175.168	169.271	113.264	104.980	104.001	103.977	115.436	128.949	115.675	188.656	199.662	39.427
6.000	302.294	243.995	250.202	305.374	313.705	315.186	315.520	303.416	290.023	302.986	229.910	219.692	117.155	175.359	168.961	113.216	105.004	103.858	103.929	115.317	128.973	115.818	188.632	199.805	40.149
7.000	302.485	242.897	250.178	305.732	314.064	314.971	315.329	303.297	289.951	303.153	229.790	219.453	117.108	176.051	169.009	113.097	104.956	104.001	104.192	115.317	128.973	115.484	188.442	199.877	40.600
8.000	302.318	242.706	250.465	305.398	313.658	314.995	315.210	303.559	290.166	303.607	229.743	219.310	117.084	176.600	168.794	113.216	104.956	104.073	103.977	115.484	129.020	115.651	188.656	200.187	40.736
9.000	302.031	242.777	250.369	305.708	314.255	315.090	315.186	303.201	290.095	303.297	229.528	219.692	117.108	176.696	168.746	113.169	104.837	103.858	103.953	115.460	128.997	115.460	188.585	200.187	40.239
10.000	299.549	272.094	250.250	305.326	313.705	315.138	315.448	303.058	289.975	302.437	229.313	253.306	119.423	146.687	168.674	113.431	105.075	103.715	103.929	115.556	128.949	116.511	188.919	164.616	39.788
11.000	261.065	297.233	247.075	303.870	313.419	314.780	315.210	302.031	290.644	286.514	228.143	283.482	159.388	122.718	172.279	114.362	105.290	104.168	104.073	116.678	128.400	132.482	190.280	137.257	36.043
12.000	238.242	310.769	238.313	301.960	313.180	314.637	314.923	299.692	290.763	246.335	226.758	299.978	181.924	108.871	181.566	116.535	105.625	104.407	104.192	119.161	128.066	174.786	191.354	121.309	37.758
13.000	262.640	319.077	229.838	298.617	312.488	313.610	314.804	297.209	290.835	221.435	225.612	309.408	156.929	100.802	191.617	119.925	106.245	105.243	104.550	121.596	128.066	197.346	192.309	111.402	47.504
14.000	280.689	323.255	238.146	294.726	311.748	312.583	313.920	294.225	290.954	237.072	225.302	315.520	137.090	96.147	179.847	123.649	106.770	105.768	104.956	124.556	128.280	180.014	192.930	105.219	51.519
15.000	295.609	326.836	248.603	289.546	310.984	311.557	313.705	291.073	289.832	251.491	224.132	319.889	122.240	93.067	166.908	128.806	107.558	107.057	105.410	127.803	128.925	165.714	193.574	100.635	43.939
16.000	306.329	328.841	258.582	284.031	309.933	310.172	312.727	287.301	289.378	263.643	224.395	323.183	111.855	90.823	156.093	134.225	108.442	108.060	106.174	131.169	129.546	154.183	194.267	97.842	32.208
17.000	313.920	330.369	267.272	278.039	309.193	309.193	312.273	283.195	288.209	273.121	223.726	325.260	104.813	89.749	147.164	140.718	109.540	109.540	106.914	135.562	130.405	145.278	194.601	95.717	29.005
18.000	319.889	331.324	273.168	271.855	308.238	307.427	310.936	278.612	287.803	280.736	223.297	327.098	99.274	87.672	139.716	147.021	110.781	111.235	107.916	140.408	131.408	137.782	194.696	94.141	37.803
19.000	323.828	331.945	278.874	265.290	306.448	305.230	309.719	273.479	286.466	286.490	223.058	327.839	95.240	87.290	133.246	153.586	112.046	113.073	109.182	145.374	132.506	132.172	195.078	92.685	50.301
20.000	326.024	332.422	283.338	258.534	305.111	303.058	308.191	267.868	285.344	290.882	223.464	329.128	92.828	87.409	128.376	159.937	113.503	115.150	110.614	150.554	133.485	126.943	194.983	91.229	53.144
21.000	328.340	332.828	287.015	251.754	303.321	300.408	306.448	262.163	284.532	295.323	223.082	329.199	91.014	86.263	124.270	166.454	115.198	117.752	112.405	156.308	134.559	122.575	195.508	90.966	42.135
22.000	329.963	333.831	290.023	245.475	301.721	297.663	304.132	256.194	283.243	298.785	222.604	329.892	89.295	86.024	120.904	173.067	116.917	120.641	114.720	162.563	135.633	119.161	195.245	90.775	30.764
23.000	331.300	333.831	292.649	239.937	299.716	294.750	301.793	250.751	282.049	302.007	222.724	330.942	88.698	86.359	118.516	179.895	119.041	123.721	117.108	168.555	137.042	116.153	195.627	89.486	28.599
24.000	331.634	334.022	294.535	233.897	297.710	291.766	298.546	245.213	280.712	305.183	222.724	330.489	87.290	86.597	116.105	185.959	121.285	126.967	120.331	174.595	138.236	113.694	195.556	89.558	37.577
25.000	332.351	334.141	295.991	229.193	295.514	288.424	295.705	239.626	279.734	306.711	222.557	331.682	87.266	85.428	114.625	190.877	123.625	129.880	123.601	179.990	139.573	111.808	195.818	89.653	50.391
26.000	332.589	335.168	297.233	227.904	293.962	287.779	293.365	238.528	278.826	306.591	222.461	331.348	86.955	85.380	114.052	192.190	125.201	131.002	125.893	181.781	140.098	111.641	195.723	89.391	53.820
27.000	332.398	334.738	297.424	227.403	293.198	288.042	292.410	238.814	278.946	305.899	222.867	330.966	86.860	85.642	113.288	192.572	125.583	130.716	126.681	181.112	140.026	112.858	195.484	89.677	44.255
28.000	333.067	334.690	297.758	227.570	293.222	288.328	292.434	239.173	278.874	305.612	222.891	331.587	87.075	85.499	113.765	192.357	125.845	130.405	126.920	180.539	139.955	113.312	196.009	89.223	32.118
29.000	332.756	334.499	297.519	227.857	292.864	288.256	292.148	239.435	279.495	305.923	222.867	331.634	87.218	85.356	113.479	192.166	126.227	130.214	127.063	180.181	139.644	113.407	195.842	89.558	28.102
30.000	333.640	334.380	298.498	227.164	292.554	287.373	291.145	238.003	278.874	306.639	223.010	331.897	86.908	84.783	114.028	192.930	126.609	131.145	128.376	181.375	140.050	111.927	196.033	89.128	36.495
31.000	334.070	335.072	299.214	225.230	290.524	284.890	288.209	234.517	277.346	308.811	222.628	331.897	85.332	85.237	112.118	194.625	128.400	134.153	130.716	185.648	141.363	109.397	195.723	88.746	49.489
32.000	334.404	335.024	300.432	225.135	288.376	281.811	285.224	230.196	275.914	310.077	222.843	331.324	85.284	85.905	111.474	193.240	130.525	136.827	133.938	189.826	142.628	108.418	196.248	88.125	54.317
33.000	333.449	335.645	300.408	226.209	285.893	279.137	282.264	229.934	275.890	308.883	222.819	331.300	86.645	84.687	110.924	191.330	132.936	139.214	136.684	190.590	143.058	109.134	195.484	88.818	45.879
34.000	331.825	335.072	301.076	227.331	284.150	278.206	280.903	233.491	276.893	306.615	223.344	330.202	87.863	85.881	110.375	190.423	134.416	140.050	138.212	186.484	141.841	112.667	195.556	89.701	33.742
35.000	330.775	335.335	301.291	227.188	283.577	279.161	281.715	239.387	278.492	300.838	223.249	329.104	89.128	85.857	110.328	190.996	134.965	139.334	137.496	180.348	140.098	117.919	195.293	90.751	27.877
36.000	329.438	333.926	300.909	225.899	284.055	280.927	283.601	245.857	280.378	294.034	223.631	326.382	91.277	85.833	110.471	192.381	134.392	137.639	135.610	173.210	138.403	124.962	195.150	91.993	34.961
37.000	327.146	334.284	300.885	224.323	285.654	282.718	285.511	252.255	281.906	285.320	224.013	324.902	92.637	85.833	111.068	193.909	133.007	135.753	133.270	166.669	136.660	132.864	194.577	94.022	47.639
38.000	324.281	333.162	300.742	223.894	287.158	285.033	288.376	258.701	284.007	275.269	224.538	322.395	95.717	86.287	111.139	195.222	131.885	133.700	130.716	160.319	135.228	143.177	193.909	96.839	53.550
39.000	321.059	332.828	299.883	225.469	288.829	287.039	291.002	264.144	284.628	265.457	224.801	320.199	97.722	87.576	111.712	194.052	129.904	131.551	128.089	154.613	134.225	153.992	193.216	99.298	47.052
40.000	318.600	331.563	299.668	228.668	290.310	289.020	293.843	269.778	285.988	253.401	225.684	316.952	101.757	87.910	112.763	190.447	128.113	129.593	125.463	149.576	132.960	166.215	192.667	103.189	35.367
41.000	312.989	331.252	298.832	232.942	292.386	291.193	296.015	273.312	286.442	241.130	225.780	312.655	106.006	88.412	113.598	185.839	126.347	127.564	122.837	145.231	132.291	178.701	192.428	106.150	29.366
42.000	308.907	330.870	297.567	237.836	294.654	293.294	298.307	277.036	287.397	228.501	226.162	308.907	110.829	88.794	114.601	180.730	124.270	125.416	120.569	141.602	131.766	189.802	192.166	109.802	33.968
43.000	302.198	329.605	296.755	242.873	296.517	295.657	300.599	280.521	287.612	217.877	226.448	305.350	116.773	89.582	116.296	175.645	122.503	123.601	118.254	138.355	131.074	200.617	191.784	113.813	44.030
44.000	294.798	328.961	294.368	248.555	297.519	296.875	302.437	282.837	288.304	225.183	226.735	301.697	124.270	90.895	117.561	170.369	121.095	122.073	116.654	135.705	130.835	193.765	191.354	117.991	50.707
45.000	287.301	327.576	293.031	253.234	299.167	298.832	304.323	285.392	288.256	234.732	227.093	297.949	132.578	91.420	119.829	165.380	119.543	120.068	114.911	133.556	130.405	184.097	191.330	121.787	46.827
46.000	278.397	326.335	291.408	258.391	300.981	300.694	305.589	287.230	288.304	243.589	227.260	294.320	141.435	92.637	121.620	160.486	118.015	118.397	113.383	131.503	130.310	175.980	191.115	125.654	38.886
47.000	269.325	326.406	288.447	262.210	301.602	301.936	306.973	288.758	288.710	250.489	227.451	289.975	151.271	93.568	124.007	155.997	116.941	116.678	112.094	129.593	130.143	168.388	190.972	129.283	32.389
48.000	259.465	324.854	286.251	266.054	302.819	303.344	308.286	290.787	289.211	257.078	227.570	286.561	160.199	94.690	126.585	152.369	115.699	115.174	110.924	128.209	129.999	161.775	190.757	132.792	34.194
49.000	250.226	324.186	283.291	269.945	303.774	305.159	308.979	291.814	289.068	262.974	227.761	283.052	168.388	95.574	129.617	148.167	114.505	113.598	109.922	126.896	129.952	155.663	190.351	136.254	41.548
50.000	241.942	322.586	279.566	273.932	304.968	306.329	309.933	292.840	289.283	268.489	228.071	279.757	177.316	96.481	133.509	144.514	113.527	111.975	109.206	125.702	129.880	150.530	190.328	139.740	47.594
51.000	234.995	321.918	276.248	277.155	305.780	307.928	310.697	294.177	289.474	273.335	228.143	276.129	184.980	97.699	137.400	141.315	112.787	110.781	108.442	124.676	129.665	145.947	190.256	143.559	45.879
52.000	229.002	321.226	271.975	280.736	306.949	309.289	311.199	294.965	289.378	276.726	227.880	273.144	190.829	98.415	141.530	138.092	111.712	109.564	107.845	123.912	129.593	142.342	190.113	146.544	40.104
53.000	224.347	320.390	267.988	283.147	307.451	309.766	311.557	295.562	289.164	279.399	228.095	270.041	195.771	99.752	146.400	135.395	111.187	109.015	107.320	123.171	129.665	139.453	189.993	149.743	34.825
54.000	220.981	319.268	263.667	285.081	307.976	310.148	311.843	296.159	289.402	281.739	228.453	267.940	199.328	100.372	151.008	133.270	110.375	108.227	107.105	122.431	129.522	137.114	190.041	151.915	36.043
55.000	219.405	317.668	259.656	287.063	309.170	311.151	312.297	296.827	289.116	283.529	228.549	265.314	200.474	101.256	155.377	131.432	109.874	107.678	106.603	121.787	129.570	135.132	189.922	154.302	41.007
56.000	221.912	317.382	255.359	288.447	309.241	311.294	312.822	297.328	289.235	285.392	228.644	262.855	197.848	102.091	160.056	129.952	109.611	107.296	106.269	121.166	129.474	133.843	189.778	156.523	45.744
57.000	227.451	317.167	251.467	289.999	309.480	312.273	313.061	297.949	289.331	286.514	228.621	261.279	192.667	102.879	164.353	128.567	109.015	106.818	106.102	120.856	129.522	132.243	189.755	158.480	44.571
58.000	232.273	315.782	248.244	291.145	309.910	312.703	313.419	298.426	289.760	288.018	228.788	259.322	187.272	103.380	168.245	127.278	108.704	106.484	105.935	120.522	129.570	131.026	189.659	160.366	40.239
59.000	237.716	315.257	243.852	292.315	310.172	312.512	313.371	298.522	289.283	288.782	228.812	257.388	181.566	104.455	172.208	126.251	108.370	106.054	105.863	120.187	129.450	129.928	189.587	162.396	36.404
60.000	242.563	314.255	241.393	293.723	310.578	312.822	313.586	298.617	289.641	289.784	228.835	255.908	176.553	105.099	175.765	125.201	108.083	105.959	105.625	119.829	129.426	128.973	189.659	164.067	36.856
61.000	247.218	313.324	238.242	294.201	310.769	313.228	313.968	299.334	289.522	290.763	228.621	254.046	172.375	105.911	178.606	124.508	107.845	105.744	105.505	119.519	129.379	127.922	189.540	165.523	40.510
62.000	250.823	312.751	235.544	294.798	311.103	313.276	313.610	299.334	289.307	291.312	228.621	252.351	168.627	106.150	181.470	123.840	107.654	105.505	105.314	119.328	129.379	127.421	189.420	167.027	44.661
63.000	254.523	312.416	233.729	295.395	311.270	313.180	313.849	299.835	289.283	292.028	228.979	251.324	165.069	107.129	184.097	122.909	107.487	105.457	105.314	119.065	129.426	126.753	189.373	168.627	43.714
64.000	257.675	311.581	231.796	296.493	311.605	313.729	314.183	299.716	289.402	293.294	229.170	249.749	161.608	107.916	186.341	122.408	107.296	105.266	105.147	118.827	129.426	126.060	189.420	169.844	40.691
65.000	260.492	310.841	230.029	296.684	311.581	313.705	314.135	300.145	289.187	293.127	228.740	248.292	158.934	108.537	188.609	121.906	107.152	105.195	105.147	118.755	129.522	125.726	189.325	171.444	37.577
66.000	263.380	310.793	229.050	297.185	311.676	314.087	314.541	300.289	289.450	294.177	228.835	247.075	156.284	109.110	190.304	121.190	107.057	105.099	104.884	118.540	129.426	124.914	189.325	172.590	37.713
67.000	265.266	309.790	227.570	298.092	311.652	313.849	314.278	300.408	289.498	294.416	229.265	245.786	154.088	109.969	191.617	120.856	107.033	105.052	104.861	118.445	129.259	124.556	189.373	173.807	40.465
68.000	267.343	308.382	227.045	298.355	312.249	314.087	314.302	300.503	289.355	294.631	229.074	244.520	152.130	110.829	192.691	120.450	106.890	104.813	104.861	118.254	129.355	124.079	189.325	174.953	43.984
69.000	269.253	308.525	226.949	298.498	311.987	314.016	314.111	300.408	289.904	295.418	228.955	243.470	150.435	111.187	193.694	120.044	106.794	104.932	104.741	118.110	129.259	123.697	189.182	175.765	43.804
70.000	270.972	307.856	226.615	298.808	312.178	314.207	314.398	300.814	289.689	295.562	229.217	242.658	148.644	111.879	193.932	119.686	106.579	104.693	104.717	118.086	129.259	123.339	189.325	176.457	41.142
71.000	272.524	306.639	226.544	299.119	311.939	313.944	314.541	300.647	289.450	295.968	229.193	241.918	147.164	112.572	194.267	119.328	106.556	104.670	104.598	117.872	129.283	123.028	189.229	177.675	38.841
72.000	273.885	306.543	226.782	299.334	312.321	314.231	314.398	300.718	289.402	295.968	229.170	241.393	145.947	113.145	194.195	119.065	106.508	104.789	104.622	117.752	129.379	122.813	189.229	178.630	37.984
73.000	275.317	305.350	226.902	299.787	312.321	314.207	314.374	300.933	289.856	296.660	229.289	240.271	144.299	114.004	193.980	118.850	106.317	104.479	104.574	117.681	129.331	122.599	189.158	179.489	39.292
74.000	276.272	305.183	227.427	300.193	312.106	313.992	314.231	300.981	290.047	296.827	229.265	239.746	143.034	114.458	193.741	118.707	106.221	104.526	104.598	117.490	129.355	122.193	189.205	180.086	42.856
75.000	277.657	304.610	227.904	300.026	312.416	314.493	314.971	301.482	289.928	297.209	229.074	238.552	142.199	114.983	193.503	118.516	106.365	104.574	104.479	117.561	129.235	121.930	189.325	181.017	43.714
76.000	278.731	303.225	228.453	300.575	312.774	314.326	314.446	301.196	289.593	296.970	229.289	238.122	141.005	115.747	192.619	118.134	106.126	104.431	104.502	117.418	129.211	121.715	189.182	181.423	41.322
77.000	279.614	303.559	228.668	300.432	312.894	314.589	314.565	301.148	289.784	297.448	229.002	237.525	140.074	116.368	192.190	117.943	106.221	104.383	104.383	117.299	129.355	121.667	189.182	182.139	39.337
78.000	280.450	302.700	229.074	301.076	312.583	314.255	314.446	301.291	289.546	297.495	229.241	237.119	139.119	117.060	191.545	117.800	106.078	104.479	104.431	117.108	129.164	121.309	189.158	182.855	38.344
79.000	281.214	301.960	229.910	300.909	312.727	314.493	314.565	301.482	289.689	297.567	229.026	236.117	138.260	117.704	190.972	117.561	106.054	104.455	104.526	117.227	129.211	121.071	189.110	183.309	39.608
80.000	282.049	301.530	230.148	300.933	312.488	314.159	314.660	301.745	289.665	297.997	229.313	235.854	137.782	118.158	190.590	117.322	106.030	104.526	104.550	117.132	129.164	120.951	189.182	183.882	42.495
81.000	283.124	301.029	230.912	301.315	312.774	314.565	314.541	301.721	290.071	298.045	229.241	234.828	136.923	118.731	189.850	117.370	106.030	104.311	104.359	117.012	129.235	120.832	189.110	184.311	43.172
82.000	283.338	300.193	231.079	301.578	312.679	314.541	314.589	301.482	289.808	298.403	229.313	234.947	136.206	119.185	189.325	116.964	105.863	104.383	104.359	117.084	129.188	120.593	189.182	185.004	40.781
83.000	284.389	299.668	232.202	301.578	312.942	314.446	314.684	301.864	289.880	298.331	229.241	234.135	135.538	119.972	188.895	116.988	106.030	104.359	104.407	117.036	129.020	120.522	189.158	185.290	39.202
84.000	284.938	299.310	231.939	301.602	312.679	314.732	314.971	301.936	289.784	298.713	229.432	233.920	134.798	120.283	188.227	116.869	105.839	104.288	104.335	116.941	129.235	120.259	189.062	185.696	38.751
85.000	285.392	298.331	232.393	301.817	313.347	314.637	314.923	301.649	289.689	298.641	229.361	233.276	134.320	120.999	187.701	116.773	105.887	104.335	104.335	116.893	129.259	120.211	188.967	186.030	39.743
86.000	286.012	298.140	233.037	301.984	313.013	314.708	314.804	301.936	289.784	298.880	229.217	232.846	133.819	121.357	187.224	116.845	105.887	104.359	104.288	116.845	129.068	119.972	188.991	186.651	42.360
87.000	286.681	297.209	233.729	302.103	313.061	314.350	314.923	301.912	289.737	299.071	229.217	232.560	133.151	122.002	186.890	116.559	105.672	104.264	104.383	116.917	129.331	120.044	188.943	186.770	42.902
88.000	286.943	297.304	233.753	301.840	313.443	314.708	314.613	301.984	290.023	299.119	229.170	232.154	132.816	122.527	186.269	116.487	105.839	104.311	104.264	116.773	129.211	119.829	189.158	187.343	40.826
89.000	287.516	296.779	234.279	301.912	312.631	314.684	314.923	302.198	289.593	298.952	229.241	231.700	132.411	123.076	185.696	116.320	105.911	104.264	104.288	116.750	129.188	119.567	189.134	187.534	39.337
