-----------------------------------------------------
BloodHound 307 VOC Analyser V2017.1
RoboScientific Ltd 
Espace North
Wisbech Road
Littleport
Cambridgeshire, UK
CB6 1RA 
-----------------------------------------------------
Date = 21/04/2022
Time = 12:18:52
Data is protected by RoboScientific Limited
-----------------------------------------------------
Name of the experiment = "44b_Day 42"
-----------------------------------------------------
Repeat No. = 1/4
-----------------------------------------------------
Experimental Time (in sec) and Flow Profile :
-----------------------------------------------------
Baseline = 2.00
Absorb = 4.00
Pause = 1.00
Desorb = 5.00
Flush = 20.00
Wait = 5.00
Higher Flow (V) = 4.00
Medium Flow (V) = 3.00
Low Flow (V) = 1.00
-----------------------------------------------------
Total Profile Time = 37 in sec
-----------------------------------------------------
Acquired data point per second = 4
--------------------------------------------------
Total data point stored  = 128
-----------------------------------------------------
Acquired sensor responses from 24 sensors
-----------------------------------------------------

Data Points	 Sen-1	 Sen-2	 Sen-3	 Sen-4	 Sen-5	 Sen-6	 Sen-7	 Sen-8	 Sen-9	 Sen-10	 Sen-11	 Sen-12	 Sen-13	 Sen-14	 Sen-15	 Sen-16	 Sen-17	 Sen-18	 Sen-19	 Sen-20	 Sen-21	 Sen-22	 Sen-23	 Sen-24	Humidity (%r.h.)
0.000	307.498	225.827	244.926	304.323	312.727	314.350	315.162	304.156	290.357	304.586	230.029	217.925	112.023	194.816	174.547	114.314	106.006	104.335	104.216	114.601	128.591	114.291	188.274	201.954	40.555
1.000	307.307	225.971	244.926	304.490	313.133	314.875	315.114	304.108	290.238	304.634	230.148	218.045	112.023	194.147	174.308	114.195	106.006	104.311	104.168	114.649	128.686	114.243	188.298	202.002	40.285
2.000	307.331	226.902	245.356	304.371	312.822	314.350	314.971	304.132	290.405	305.230	230.172	218.236	111.951	193.718	173.831	114.291	105.911	104.288	104.049	114.720	128.686	114.123	188.298	201.930	39.879
3.000	307.809	226.973	245.905	304.562	313.109	314.684	315.233	304.323	290.357	304.801	229.814	218.188	111.903	193.407	173.544	114.291	105.959	104.288	103.977	114.577	128.662	114.171	188.155	201.858	40.059
4.000	307.284	227.355	246.167	304.156	312.679	314.589	314.851	304.061	290.500	304.872	230.244	218.355	111.879	193.097	173.306	114.338	105.935	104.431	104.025	114.529	128.567	114.004	188.227	201.763	40.375
5.000	307.976	227.307	246.024	304.419	312.703	314.589	315.257	304.228	290.572	304.968	229.910	218.379	111.999	192.739	173.115	114.123	106.006	104.288	104.120	114.720	128.591	113.885	188.203	201.715	40.646
6.000	307.618	227.666	246.430	304.538	313.013	314.637	314.923	303.965	290.500	305.207	230.101	218.331	111.617	192.524	172.733	114.028	105.839	104.264	104.144	114.649	128.686	113.861	188.227	201.811	40.465
7.000	307.093	227.880	246.526	304.634	312.774	314.350	314.875	304.395	290.620	305.111	229.957	218.450	111.736	192.237	172.709	114.004	106.006	104.335	104.192	114.649	128.734	113.861	188.370	201.715	40.194
8.000	307.809	228.406	246.908	304.275	312.774	314.350	315.257	304.180	290.381	304.992	229.886	218.403	111.832	192.070	172.375	114.100	105.959	104.359	104.144	114.673	128.662	113.885	188.179	201.739	39.879
9.000	307.570	228.382	246.812	304.920	312.918	314.589	315.186	304.061	290.262	304.777	230.053	218.546	111.569	191.784	172.136	113.932	105.720	104.168	104.120	114.577	128.734	113.861	188.179	201.596	40.149
10.000	305.684	243.422	246.693	304.371	313.109	314.493	315.257	304.180	290.405	303.941	229.623	251.658	113.336	178.868	172.375	114.076	105.959	104.335	104.025	114.744	128.376	114.601	188.489	170.680	40.510
11.000	275.794	284.556	243.112	302.867	312.130	313.920	314.756	302.939	291.169	290.930	228.024	286.084	145.971	135.992	176.338	115.604	106.460	104.908	104.359	115.986	127.922	129.498	190.160	135.729	38.525
12.000	230.698	305.660	232.631	299.907	311.628	313.347	314.732	300.121	291.551	242.133	226.687	302.986	189.325	114.482	187.701	118.301	107.224	105.577	104.431	118.564	127.373	178.844	191.545	118.277	46.105
13.000	257.555	316.236	232.393	296.254	310.459	312.297	313.992	296.636	291.575	228.931	226.138	312.583	159.698	103.285	186.197	121.978	108.179	106.627	105.075	121.787	127.469	188.656	192.404	107.964	51.203
14.000	280.975	322.515	247.122	290.596	308.788	311.032	313.682	293.580	290.882	247.027	225.612	319.125	137.567	96.505	169.940	127.516	109.516	107.678	105.529	125.105	127.731	170.226	193.097	102.091	43.984
15.000	297.137	326.191	260.683	283.983	307.475	309.432	312.464	289.546	290.357	262.091	224.658	323.470	121.190	93.210	155.639	134.106	111.020	108.991	106.221	128.949	128.639	155.448	193.407	97.913	32.299
16.000	308.573	329.748	270.709	277.107	306.018	307.928	311.700	285.320	289.546	273.717	224.085	326.072	110.757	90.536	145.398	141.888	113.001	110.686	107.105	133.509	129.546	144.419	193.837	94.738	29.411
17.000	316.355	331.157	278.325	268.847	303.488	305.994	310.554	280.068	288.614	282.813	223.535	328.603	102.712	88.818	136.326	150.148	115.150	112.739	108.370	138.928	130.501	135.037	194.362	92.613	39.698
18.000	321.226	332.947	284.651	260.324	300.909	303.774	309.265	274.123	287.421	289.593	223.512	329.175	97.126	87.337	129.474	158.504	117.776	114.959	109.731	145.135	131.670	127.612	194.935	91.611	52.241
19.000	325.666	332.995	289.569	252.542	298.498	301.530	307.116	267.176	286.012	295.395	223.201	330.154	94.189	85.619	124.317	166.000	120.163	117.370	111.736	151.485	133.031	122.646	195.031	90.799	52.016
20.000	327.767	333.855	293.867	245.022	295.227	298.092	304.872	260.396	284.198	299.668	222.939	331.205	91.563	85.523	119.710	174.285	123.601	120.163	113.837	158.791	134.320	117.943	195.293	89.462	40.149
21.000	329.104	334.881	297.042	237.191	291.766	294.750	302.198	253.067	282.909	304.490	223.130	332.136	89.534	85.404	117.060	181.781	127.278	123.506	116.797	166.191	135.657	114.434	194.840	88.269	28.328
22.000	331.539	334.404	299.716	230.912	288.209	291.312	298.856	246.311	281.476	307.069	222.795	332.375	88.197	84.687	114.147	189.014	130.930	127.111	120.641	173.449	137.233	110.662	195.675	89.319	31.351
23.000	331.229	334.810	302.437	226.042	284.055	287.516	294.798	239.578	280.354	310.578	223.273	333.759	86.788	84.664	112.237	194.314	135.514	131.169	124.652	180.301	138.641	108.442	195.699	87.839	44.390
24.000	333.258	335.454	303.989	225.398	278.779	283.601	290.071	233.133	278.301	312.010	222.724	333.115	86.311	84.831	110.638	193.885	140.265	135.084	129.402	186.412	140.480	105.911	195.747	86.836	54.407
25.000	333.640	336.027	305.565	227.260	274.076	279.734	285.033	228.430	276.845	313.801	222.963	333.688	85.881	84.520	109.038	190.423	145.422	139.000	134.273	191.521	141.912	104.717	195.723	87.409	48.587
26.000	333.664	335.884	305.899	228.286	270.853	278.110	281.070	227.451	276.224	314.111	222.939	333.353	85.571	84.377	108.776	189.922	148.859	140.647	138.116	192.906	142.724	104.479	195.795	87.266	34.961
27.000	333.568	334.929	306.376	228.119	269.993	278.540	279.901	227.952	276.224	313.753	222.843	333.544	85.451	84.377	108.465	189.946	150.268	140.289	139.334	192.500	142.748	105.195	195.795	87.385	27.561
28.000	333.329	335.597	306.734	227.379	268.322	278.659	279.543	228.143	276.893	313.562	222.700	333.664	85.953	83.351	108.465	189.993	150.912	140.026	140.050	191.927	142.461	105.099	195.986	87.290	35.051
29.000	334.117	335.645	306.663	227.307	268.800	278.874	278.516	228.525	276.153	313.395	223.058	333.783	85.571	84.282	108.251	190.781	151.223	139.835	140.504	191.593	142.437	104.622	195.556	85.857	49.173
30.000	334.595	335.979	307.761	229.408	266.985	277.298	276.749	227.522	275.938	314.756	223.344	333.902	84.735	84.497	107.797	187.821	152.512	141.268	142.008	192.667	142.939	104.144	195.818	86.144	54.587
31.000	335.263	336.075	307.642	234.470	263.619	273.598	272.977	224.538	274.649	316.379	223.177	333.759	84.616	84.306	107.105	183.046	155.568	144.992	146.472	194.744	144.252	101.948	195.508	85.499	44.977
32.000	334.475	335.836	308.740	239.364	259.561	269.683	267.988	224.467	273.455	316.714	223.273	334.189	85.308	84.091	106.699	178.057	160.128	148.859	151.247	194.386	145.732	101.805	195.627	86.764	31.216
33.000	334.475	335.430	310.005	242.181	255.717	267.057	264.359	224.108	273.312	314.875	223.249	332.828	85.810	83.422	106.174	175.598	164.329	151.676	154.971	194.577	145.398	103.571	195.842	87.576	28.193
34.000	333.353	336.051	310.530	242.992	253.521	267.128	263.452	226.567	274.959	312.345	223.273	331.420	87.290	83.900	106.245	174.308	166.788	151.820	156.045	193.527	143.512	106.317	195.508	87.409	39.202
35.000	331.730	335.406	310.315	242.515	253.162	268.489	264.765	231.891	277.943	307.451	223.130	330.345	88.603	84.329	105.720	175.287	167.170	150.554	154.255	188.083	141.291	111.068	195.007	88.794	52.512
36.000	329.748	334.595	310.626	240.223	254.690	270.733	268.012	239.531	279.972	301.936	223.440	329.414	89.916	84.807	105.720	177.293	165.475	148.215	151.462	180.444	139.000	117.609	194.649	90.346	51.745
37.000	327.695	334.738	310.721	237.310	256.147	273.073	271.712	247.290	282.049	294.392	223.846	326.526	92.160	85.117	105.792	180.229	163.207	145.732	147.546	172.566	136.970	125.559	194.100	92.518	39.202
38.000	324.902	333.879	309.981	233.897	259.346	275.985	275.603	254.237	283.840	285.654	224.944	324.162	94.667	85.619	106.365	183.977	159.937	142.533	143.464	164.998	135.060	134.320	193.622	95.096	28.599
39.000	321.536	333.353	309.098	228.979	262.712	278.898	279.519	260.778	284.986	275.030	225.493	321.321	98.176	85.833	106.961	188.609	156.403	139.907	139.214	158.194	133.747	143.822	193.097	97.317	32.659
40.000	317.072	332.494	309.647	225.230	266.173	281.572	283.673	266.460	286.370	263.547	225.421	317.573	101.996	86.764	107.320	192.381	152.727	136.899	135.538	152.440	132.673	154.493	192.572	101.136	44.751
41.000	311.819	331.921	307.833	222.485	270.375	284.866	287.373	271.402	287.134	251.491	226.185	314.469	107.630	86.717	108.107	195.986	149.265	134.297	131.861	147.809	131.838	166.597	192.404	104.813	52.602
42.000	305.756	331.443	307.761	223.822	273.503	286.991	290.668	275.508	287.898	239.937	226.567	310.387	113.646	88.579	108.537	195.651	145.422	131.670	128.233	143.392	131.074	179.298	191.736	108.776	46.872
43.000	297.472	330.942	306.376	227.618	276.940	289.450	294.249	279.232	288.471	227.642	227.069	306.472	121.811	88.961	109.778	191.139	141.793	129.068	125.129	139.883	130.596	191.664	191.426	112.858	35.728
44.000	287.779	329.128	305.230	233.037	280.187	291.790	296.755	281.811	288.567	218.140	226.878	302.557	131.909	89.605	110.853	185.433	138.546	126.991	122.217	136.708	130.286	200.569	191.211	117.585	30.764
45.000	276.415	328.626	303.798	238.576	283.362	293.700	299.214	284.556	288.901	227.546	227.284	298.976	142.748	90.465	112.428	179.823	135.323	124.819	119.471	134.106	129.975	190.614	190.924	121.095	36.765
46.000	264.431	327.695	302.366	244.377	286.394	295.657	301.649	286.681	288.710	237.310	227.713	294.702	154.732	91.587	113.622	174.404	132.363	122.981	117.585	131.885	129.665	181.661	190.948	125.392	46.827
47.000	252.780	326.287	299.883	249.820	289.140	297.710	303.201	288.543	288.901	245.881	227.928	290.739	166.502	93.473	115.986	169.080	129.928	120.880	115.699	130.095	129.546	173.067	190.709	128.639	49.489
48.000	241.751	325.738	297.424	255.168	291.646	299.811	304.825	290.405	289.331	253.592	227.737	287.731	177.818	94.094	117.943	163.900	127.349	118.994	114.100	128.233	129.402	165.666	190.566	132.339	42.360
49.000	232.416	324.544	294.893	259.513	293.819	301.554	306.281	291.575	289.426	260.277	228.143	284.055	187.463	95.454	120.617	158.886	125.105	116.964	112.739	126.753	129.379	158.528	190.280	135.538	34.735
50.000	224.681	322.682	292.196	264.478	295.705	303.249	307.188	293.222	289.546	266.603	228.071	280.283	195.054	96.385	123.649	153.777	123.171	115.246	111.736	125.607	129.283	152.249	190.160	139.310	33.878
51.000	219.787	322.443	288.137	269.349	297.472	305.230	308.310	294.463	289.713	271.330	228.215	276.057	200.092	97.770	127.015	149.146	120.951	113.574	110.542	124.341	129.211	147.522	189.969	142.915	39.879
52.000	219.978	320.295	284.270	273.407	299.405	306.329	309.289	294.965	289.474	275.436	228.215	273.455	199.901	98.988	131.360	145.541	119.399	112.405	109.659	123.458	129.211	143.703	189.826	146.400	46.466
53.000	224.872	319.578	280.426	276.630	300.623	307.116	309.957	296.063	289.856	278.564	228.716	270.757	195.269	100.181	135.419	142.175	117.943	111.450	109.062	122.790	129.068	140.527	189.826	149.385	45.834
54.000	230.507	318.289	275.484	279.566	302.103	308.549	310.697	296.731	290.119	281.238	228.430	267.892	189.325	101.447	140.193	139.286	116.487	110.423	108.251	122.073	129.068	137.854	189.707	151.939	40.285
55.000	236.308	317.382	270.781	281.620	303.106	309.361	311.294	297.328	289.617	283.147	229.002	265.219	182.974	102.521	144.992	136.923	115.389	109.683	107.821	121.476	129.211	135.753	189.659	154.708	35.457
56.000	242.443	316.093	266.436	284.031	304.084	309.671	311.461	297.472	289.546	285.177	228.812	262.401	176.887	103.810	149.599	134.511	114.314	109.015	107.367	120.975	129.092	133.509	189.540	157.096	36.720
57.000	247.576	315.233	261.518	285.678	305.111	310.292	311.915	298.259	289.689	286.848	228.621	259.919	171.444	105.171	154.207	132.912	113.431	108.274	107.057	120.378	129.164	132.220	189.468	159.698	42.044
58.000	252.184	314.064	257.269	287.349	305.565	310.745	312.488	298.976	289.856	288.209	228.907	258.319	167.433	105.935	158.862	131.217	112.906	108.083	106.961	120.259	129.164	130.668	189.444	161.918	45.157
59.000	257.078	312.965	253.330	288.734	306.496	311.103	312.822	299.023	289.856	289.331	228.883	255.908	162.992	107.176	163.351	129.999	112.166	107.487	106.532	119.829	129.211	129.761	189.301	163.995	43.127
60.000	260.754	311.987	249.390	290.190	306.854	311.700	312.751	299.262	289.665	290.142	229.146	253.640	159.101	108.370	167.791	128.519	111.712	107.176	106.341	119.495	129.116	128.710	189.301	165.857	39.247
61.000	263.619	310.841	245.642	291.217	307.761	311.772	312.774	299.596	290.047	291.479	229.026	251.873	155.902	109.397	171.467	127.516	111.235	106.961	106.150	119.113	129.164	127.516	189.349	167.552	36.675
62.000	266.746	309.265	242.419	292.315	308.071	312.154	313.156	299.787	289.832	291.909	229.337	250.584	152.942	110.590	174.714	126.418	110.757	106.747	106.030	118.898	129.068	126.848	189.277	169.462	38.841
63.000	269.038	308.167	239.101	293.103	308.143	312.249	313.467	300.265	289.832	292.840	229.074	248.579	150.387	111.497	178.009	125.654	110.375	106.556	105.720	118.659	128.997	126.012	189.205	171.157	43.308
64.000	271.449	306.663	236.547	293.509	308.549	312.369	313.443	300.217	290.071	293.867	229.026	247.051	148.262	113.049	181.112	124.795	109.993	106.460	105.744	118.373	129.020	125.416	189.182	172.804	44.210
65.000	273.574	305.851	233.897	294.535	308.883	312.655	313.467	300.527	290.047	294.225	229.289	245.547	146.209	114.147	183.667	124.246	110.017	106.269	105.601	118.277	129.068	124.795	189.205	174.237	41.864
66.000	275.126	304.061	232.034	295.156	309.575	312.942	313.586	300.694	289.832	294.392	229.575	244.114	144.252	115.842	186.197	123.553	109.659	106.245	105.529	118.086	128.997	124.437	189.086	175.741	38.525
67.000	277.084	303.034	230.077	295.777	309.074	312.631	313.729	301.100	289.856	295.108	229.575	242.706	142.604	116.869	188.060	122.957	109.349	106.126	105.434	117.848	128.949	123.888	189.110	177.054	37.893
68.000	278.421	301.554	228.621	295.896	309.552	312.942	313.705	301.100	289.999	295.609	229.170	241.464	141.459	118.421	189.826	122.455	108.991	105.744	105.338	117.728	129.092	123.410	189.134	178.200	40.104
69.000	279.734	300.527	227.666	296.206	309.838	313.061	313.849	300.933	290.262	296.254	229.217	240.605	140.026	119.853	191.473	122.073	109.038	105.815	105.219	117.561	128.997	123.100	189.014	179.298	43.669
70.000	281.238	298.188	226.162	297.257	309.933	313.419	314.302	301.506	289.760	296.421	229.408	239.268	138.618	121.309	192.858	121.667	108.680	105.648	105.290	117.394	129.044	122.694	188.991	180.444	43.308
71.000	282.861	297.257	225.135	297.209	310.339	313.371	314.111	301.626	290.262	296.660	229.289	238.623	137.710	122.909	193.932	121.214	108.656	105.744	105.171	117.370	128.925	122.193	188.991	181.470	40.239
72.000	283.458	295.824	224.849	297.615	310.124	313.347	313.968	301.769	290.071	296.803	229.122	237.287	136.636	124.437	194.911	120.975	108.465	105.505	105.075	117.108	128.973	121.930	188.967	182.425	38.525
73.000	284.102	294.129	224.037	298.188	310.315	313.037	313.825	301.220	289.689	297.519	229.408	236.379	135.204	125.798	195.436	120.545	108.346	105.601	105.266	117.155	128.901	121.572	189.014	183.547	38.886
74.000	285.439	292.649	224.180	298.641	310.315	313.777	314.111	301.482	290.095	297.663	229.193	235.568	134.201	127.349	195.890	120.140	108.083	105.362	104.837	117.060	128.997	121.333	188.991	184.311	41.367
75.000	286.084	291.241	224.276	299.071	310.626	313.419	314.040	301.649	289.928	297.734	229.695	234.279	133.604	128.758	196.129	119.853	107.988	105.386	104.980	117.060	129.020	120.975	188.919	185.362	43.217
76.000	286.919	289.641	224.323	299.190	310.721	313.514	314.302	301.888	289.975	297.997	229.575	233.443	132.721	130.310	196.129	119.734	108.131	105.362	104.837	116.797	128.949	120.736	188.991	186.078	41.774
77.000	287.564	288.185	224.467	299.238	310.745	313.610	314.135	302.055	290.477	298.474	229.528	233.276	131.933	131.551	195.962	119.399	107.892	105.147	104.932	116.845	128.973	120.641	188.943	186.627	39.608
78.000	288.519	287.254	224.705	299.167	310.888	313.944	314.517	302.031	289.904	298.259	229.384	232.607	131.408	133.103	195.699	119.137	107.845	105.266	104.908	116.606	128.973	120.402	188.919	187.319	38.976
79.000	288.973	285.941	225.016	299.501	311.103	313.992	314.422	302.246	289.832	298.498	229.528	231.843	130.596	134.392	195.389	119.113	107.725	105.099	104.765	116.678	128.949	120.163	188.800	187.940	39.518
80.000	289.569	283.553	225.684	300.002	311.318	313.729	314.207	302.222	290.190	299.023	229.575	230.817	129.999	135.992	195.031	118.874	107.773	105.147	104.741	116.582	128.877	119.996	188.823	188.632	42.270
81.000	289.904	282.694	226.066	300.217	311.127	313.825	314.255	302.055	289.975	298.976	229.384	230.292	129.522	137.639	194.625	118.731	107.558	105.123	104.693	116.535	128.830	119.925	188.895	189.349	42.586
82.000	290.381	280.903	226.233	300.480	311.175	313.514	314.183	302.246	290.286	299.525	229.599	230.148	129.068	139.000	194.290	118.468	107.534	105.099	104.789	116.368	128.925	119.567	188.895	189.755	40.555
83.000	290.859	279.089	227.093	300.336	311.247	313.562	314.111	302.246	289.808	299.143	229.504	229.193	128.424	140.599	193.598	118.301	107.439	104.884	104.837	116.511	128.997	119.638	188.919	190.232	39.112
84.000	291.455	278.230	227.188	300.599	311.605	313.825	314.469	302.437	289.999	299.453	229.623	229.050	128.137	141.793	193.192	118.206	107.606	105.028	104.646	116.320	128.877	119.256	188.823	190.829	38.886
85.000	292.410	276.487	228.048	300.647	311.485	313.992	314.493	302.509	290.262	299.787	229.743	228.215	127.779	143.201	192.667	118.063	107.367	104.932	104.526	116.463	129.020	119.352	188.871	191.068	40.736
86.000	292.482	275.365	227.880	300.527	311.366	313.753	314.422	302.795	290.047	299.716	229.528	228.406	127.397	144.490	192.237	118.086	107.511	105.052	104.574	116.224	128.782	119.065	188.752	191.497	42.360
87.000	292.888	273.765	228.907	300.671	311.581	314.064	314.517	302.318	290.214	299.907	229.719	227.498	126.848	146.233	191.736	117.800	107.320	104.884	104.526	116.177	128.901	119.185	188.656	191.927	41.638
88.000	293.294	271.975	228.859	300.790	311.270	313.825	314.398	302.509	290.548	300.145	229.480	227.498	126.514	147.427	191.163	117.585	107.200	105.028	104.693	116.009	128.758	118.850	188.704	192.404	39.608
89.000	293.604	270.877	229.623	301.005	311.342	313.562	314.326	302.676	290.095	300.217	229.719	226.639	125.893	148.835	190.614	117.418	107.367	105.099	104.574	116.057	128.901	118.683	188.728	192.786	39.157
