-----------------------------------------------------
BloodHound 307 VOC Analyser V2017.1
RoboScientific Ltd 
Espace North
Wisbech Road
Littleport
Cambridgeshire, UK
CB6 1RA 
-----------------------------------------------------
Date = 03/03/2021
Time = 12:35:20
Data is protected by RoboScientific Limited
-----------------------------------------------------
Name of the experiment = "1741P"
-----------------------------------------------------
Repeat No. = 4/4
-----------------------------------------------------
Experimental Time (in sec) and Flow Profile :
-----------------------------------------------------
Baseline = 2.00
Absorb = 4.00
Pause = 1.00
Desorb = 5.00
Flush = 18.00
Wait = 5.00
Higher Flow (V) = 4.00
Medium Flow (V) = 3.00
Low Flow (V) = 1.00
-----------------------------------------------------
Total Profile Time = 35 in sec
-----------------------------------------------------
Acquired data point per second = 4
--------------------------------------------------
Total data point stored  = 120
-----------------------------------------------------
Acquired sensor responses from 24 sensors
-----------------------------------------------------

Data Points	 Sen-1	 Sen-2	 Sen-3	 Sen-4	 Sen-5	 Sen-6	 Sen-7	 Sen-8	 Sen-9	 Sen-10	 Sen-11	 Sen-12	 Sen-13	 Sen-14	 Sen-15	 Sen-16	 Sen-17	 Sen-18	 Sen-19	 Sen-20	 Sen-21	 Sen-22	 Sen-23	 Sen-24	Humidity (%r.h.)
0.000	314.231	303.822	289.235	280.092	226.209	300.050	307.976	305.923	301.458	246.167	297.877	303.917	106.030	115.747	129.999	138.976	193.001	119.352	111.641	113.336	117.370	173.091	120.450	115.078	30.674
1.000	313.538	304.180	289.665	280.116	225.994	299.931	307.856	305.684	301.697	245.499	297.710	303.750	106.197	115.818	130.310	139.167	193.145	119.161	111.593	113.216	117.394	173.353	120.665	115.078	43.759
2.000	313.753	303.225	289.355	279.853	226.138	300.121	307.928	305.780	301.291	246.191	298.522	304.204	105.983	115.675	130.095	139.047	193.264	119.376	111.641	113.192	117.251	173.067	120.545	115.150	51.610
3.000	313.180	303.917	288.758	279.638	226.162	299.954	307.403	305.541	301.220	246.000	298.522	304.108	105.863	115.866	130.238	139.191	193.168	119.256	111.521	113.121	117.227	173.091	120.641	115.222	42.676
4.000	313.777	303.822	289.378	279.662	226.233	300.145	307.689	305.875	301.936	245.642	297.997	304.037	106.030	115.842	130.286	138.976	193.192	119.161	111.617	113.216	117.322	173.162	120.569	115.174	29.591
5.000	313.992	303.893	289.402	279.519	225.971	299.668	307.522	305.994	301.602	245.762	298.164	304.037	105.887	115.771	130.166	138.952	193.121	119.137	111.545	113.336	117.132	173.330	120.569	115.150	31.171
6.000	313.586	303.893	288.973	280.211	225.851	299.811	307.952	306.066	301.769	245.786	298.259	303.822	106.078	116.033	130.334	139.071	193.168	119.209	111.450	113.192	117.203	173.067	120.498	115.222	45.293
7.000	313.992	304.156	289.522	279.805	226.185	299.716	307.737	305.541	301.363	245.547	297.925	304.108	105.839	115.747	130.190	139.047	193.073	119.232	111.497	113.145	117.012	173.115	120.569	115.269	51.294
8.000	313.634	303.726	289.116	279.638	225.971	299.859	307.666	306.114	301.554	245.809	298.188	304.061	105.959	115.723	130.214	139.000	193.216	119.185	111.474	113.264	117.155	173.162	120.593	115.246	41.593
9.000	313.729	303.726	289.235	279.686	226.233	300.074	308.071	305.851	301.626	245.571	298.331	304.132	106.006	116.009	130.214	138.976	193.192	119.328	111.593	113.383	117.299	173.139	120.474	115.031	29.050
10.000	313.753	303.941	289.450	279.805	226.233	299.978	308.024	306.161	301.482	245.929	298.379	304.371	106.006	115.651	130.262	139.071	192.882	119.161	111.426	113.097	117.251	172.781	120.426	114.673	31.712
11.000	311.628	303.703	288.925	280.354	227.093	300.599	308.143	306.591	300.432	246.979	298.665	304.657	107.845	115.413	130.119	138.689	192.452	118.922	111.545	113.001	118.182	171.730	119.710	114.123	45.879
12.000	306.448	303.082	289.426	280.521	227.140	300.575	307.928	306.400	297.925	247.719	298.713	304.299	113.240	116.200	129.928	138.212	191.354	118.898	111.688	112.763	120.856	170.966	119.614	114.720	51.610
13.000	298.546	302.031	289.713	281.023	228.597	300.121	307.809	306.329	292.840	248.388	298.116	303.225	120.999	117.895	129.880	137.901	190.328	118.755	111.593	112.691	124.843	170.727	120.641	116.033	40.961
14.000	289.140	299.716	290.453	281.739	229.361	299.572	307.331	305.875	287.110	248.221	297.066	301.530	130.978	119.590	129.474	137.663	189.683	119.519	112.142	113.049	130.095	170.704	121.835	117.991	28.915
15.000	277.871	297.734	289.832	281.763	230.053	298.808	307.116	305.421	281.882	247.958	295.156	299.167	141.673	121.835	129.522	137.281	189.086	120.402	112.405	113.455	135.514	170.823	123.195	119.590	33.381
16.000	266.508	294.893	289.975	282.097	230.530	297.448	306.376	305.039	276.344	247.266	293.198	297.042	152.727	124.604	129.522	137.328	188.585	121.858	113.216	114.052	141.244	171.372	125.344	121.978	46.692
17.000	255.550	292.100	289.928	281.261	230.650	295.705	305.517	304.299	271.187	247.409	290.787	294.559	164.186	127.970	129.450	137.090	188.107	123.339	113.932	114.816	146.424	172.088	128.137	124.795	49.218
18.000	245.451	288.495	290.119	281.715	231.318	293.819	304.610	303.297	266.341	245.929	286.919	291.050	174.690	131.265	129.689	137.137	187.701	124.938	114.864	115.699	151.581	172.924	131.599	128.018	38.525
19.000	235.353	284.604	289.832	281.906	231.318	292.196	303.464	302.557	261.566	244.854	283.267	288.137	183.977	134.917	129.737	137.042	187.343	127.182	116.487	117.084	156.666	174.094	135.586	131.408	29.862
20.000	227.236	280.569	289.569	281.572	232.011	289.689	301.864	300.885	257.293	243.661	278.588	284.389	192.357	138.761	129.808	137.161	187.081	129.188	117.418	118.397	161.202	175.407	140.002	134.607	35.637
21.000	220.098	276.296	289.164	281.596	231.867	287.230	300.074	299.167	252.136	241.703	273.694	280.784	199.710	143.225	129.999	137.519	187.033	131.575	118.898	119.519	166.096	176.934	145.040	138.451	45.834
22.000	219.286	272.691	289.068	280.689	232.130	284.771	298.283	297.639	248.221	239.674	268.632	277.131	200.760	147.260	130.381	137.901	186.866	134.201	121.142	121.357	171.086	178.940	149.958	141.650	47.143
23.000	224.538	267.725	289.092	280.426	232.488	282.025	296.373	295.848	243.947	238.003	263.237	273.312	195.508	152.202	130.811	138.474	186.961	137.137	123.291	123.171	175.812	180.993	155.425	145.613	39.247
24.000	229.146	263.142	288.161	279.877	232.130	278.683	293.437	293.700	240.032	235.162	257.651	269.635	190.232	156.188	131.288	138.976	187.033	140.432	126.203	125.272	179.680	183.476	161.083	149.599	32.614
25.000	233.156	258.916	287.994	279.161	232.321	275.890	290.429	291.861	236.475	232.536	251.706	266.054	186.842	160.366	131.742	139.477	186.961	143.201	128.806	127.349	183.428	186.054	166.287	152.989	37.217
26.000	233.276	259.561	288.161	279.137	231.700	275.389	289.760	292.148	235.019	231.008	250.441	266.555	186.985	160.175	132.100	139.859	187.248	143.822	130.071	126.943	184.884	187.964	168.316	152.727	44.571
27.000	231.342	260.730	287.421	278.946	231.557	276.081	289.593	292.745	235.186	230.339	251.300	267.343	188.847	158.886	132.052	139.668	187.391	143.273	129.808	126.418	185.004	188.991	167.910	151.653	45.157
28.000	230.077	261.494	287.158	279.662	231.366	276.821	290.023	293.437	235.162	229.886	251.563	268.107	189.755	158.146	132.124	139.429	187.510	142.748	129.689	125.941	184.932	189.587	167.624	150.960	38.886
29.000	230.053	261.852	287.230	279.328	231.581	277.084	290.166	293.723	235.377	228.812	251.229	268.823	190.041	157.621	132.076	139.262	187.558	142.366	129.713	125.798	184.956	189.922	167.672	150.626	32.840
30.000	234.971	259.751	287.087	279.137	231.652	275.794	288.973	292.577	234.302	228.310	248.316	266.197	185.171	159.722	132.196	139.620	187.487	142.867	130.405	126.609	185.672	190.781	169.940	152.202	37.848
31.000	245.666	265.935	287.158	278.325	231.414	272.882	286.132	290.333	232.918	226.305	243.756	271.569	171.062	153.157	132.697	140.074	187.606	146.233	133.652	128.734	186.914	192.595	175.383	147.284	44.797
32.000	284.174	282.718	286.490	277.919	231.270	269.540	282.384	289.283	232.846	225.445	249.152	283.649	134.058	136.230	133.151	140.814	187.534	149.432	137.257	129.904	187.630	192.930	168.818	134.607	45.203
33.000	298.713	291.766	285.368	276.917	231.127	268.179	280.330	291.097	232.846	227.976	260.754	291.288	120.498	127.588	133.676	141.721	187.916	151.653	139.740	127.994	187.510	191.044	157.621	127.684	36.404
34.000	305.350	296.708	285.678	276.439	231.056	268.465	279.614	293.628	233.204	230.339	272.094	295.418	114.076	122.861	134.129	141.864	188.083	151.080	139.835	125.439	186.579	187.988	147.045	123.912	29.862
35.000	309.170	299.071	284.842	276.749	230.793	271.091	281.858	296.851	235.759	233.992	280.474	297.710	110.495	120.092	134.607	141.912	188.298	148.382	137.615	122.479	183.906	184.598	138.451	121.357	37.848
36.000	310.769	301.005	284.938	277.060	230.912	275.078	285.057	298.761	240.868	237.215	285.726	299.143	108.609	118.874	134.917	141.530	188.609	143.631	134.153	120.068	178.868	181.375	132.888	119.925	49.444
37.000	312.130	301.984	284.604	277.537	230.745	279.757	288.925	300.456	246.191	240.581	289.498	300.241	107.511	117.872	134.869	141.053	188.656	139.143	130.501	118.373	172.351	178.176	129.188	118.994	47.143
38.000	312.560	302.270	284.604	278.325	230.148	284.079	291.957	301.697	252.613	243.136	292.100	300.885	106.938	117.275	134.631	140.432	188.776	135.156	127.254	116.941	166.741	175.741	126.920	118.254	34.554
39.000	312.727	302.580	285.105	278.898	230.363	287.540	294.607	302.628	258.295	245.165	293.556	301.578	106.747	117.012	134.344	139.668	188.800	131.670	124.580	116.177	160.295	173.783	125.153	117.561	28.779
40.000	313.562	303.010	285.248	279.328	230.244	290.238	297.209	303.846	263.619	246.406	295.013	302.079	106.651	116.559	133.986	139.191	188.895	129.068	122.312	115.293	154.708	172.470	124.126	117.036	39.292
41.000	313.395	303.631	285.941	280.163	230.363	291.814	298.832	304.299	267.749	246.621	295.275	302.079	106.317	116.368	133.580	138.809	188.967	127.325	120.450	114.768	150.125	171.969	123.386	116.726	50.752
42.000	313.634	303.249	286.466	280.020	229.790	293.198	300.480	305.063	271.354	247.624	296.302	302.533	106.126	116.415	133.413	138.570	189.158	125.821	118.922	114.386	146.353	171.229	122.622	116.415	46.285
43.000	313.514	303.750	286.776	280.951	229.957	294.678	301.530	304.968	274.147	247.457	296.493	302.819	106.341	116.033	132.721	138.379	189.277	124.890	117.895	114.100	143.273	171.276	122.264	116.248	32.750
44.000	313.920	303.726	287.301	280.665	229.647	295.538	302.867	304.920	276.893	248.125	296.684	302.819	106.436	116.057	132.267	138.212	189.540	124.079	117.060	113.765	140.480	170.775	121.835	116.177	29.005
45.000	313.514	303.870	287.612	280.784	229.122	295.395	303.177	305.254	279.375	247.934	297.495	303.153	106.341	115.962	132.052	138.188	189.755	123.267	116.153	113.670	137.973	170.751	121.572	116.033	40.781
46.000	313.682	303.703	287.636	280.521	229.002	296.373	303.273	305.541	281.524	248.173	296.922	303.416	105.935	115.914	131.981	138.212	189.922	122.790	115.532	113.646	135.395	170.942	121.476	115.795	51.249
47.000	313.682	303.559	287.373	280.259	229.026	296.755	304.395	305.875	283.649	248.364	297.782	303.321	105.935	115.986	131.647	138.236	190.375	122.479	115.198	113.574	133.533	170.704	121.190	115.699	44.661
48.000	314.064	303.893	287.874	281.190	228.955	296.970	304.443	305.493	284.747	247.695	297.543	303.416	106.126	115.890	131.456	138.116	190.328	122.073	114.959	113.550	132.172	170.751	121.118	115.723	30.945
49.000	313.491	303.798	288.829	280.760	228.644	297.328	304.825	305.589	286.967	247.839	297.424	303.583	106.150	115.890	131.312	138.092	190.662	121.858	114.649	113.264	130.644	170.918	121.190	115.078	29.952
50.000	313.156	303.703	288.376	280.856	228.215	297.854	305.183	305.851	288.065	247.743	297.233	303.440	106.054	115.962	131.145	138.307	190.948	121.405	114.362	113.431	129.450	170.942	121.142	115.460	42.766
51.000	313.467	304.037	288.495	280.545	228.143	298.021	305.278	305.421	289.211	247.624	297.161	303.512	105.863	115.986	131.121	138.283	191.091	121.166	113.885	113.312	128.113	171.133	121.142	115.484	51.519
52.000	314.231	303.726	288.853	280.832	227.976	298.164	305.493	305.493	290.644	247.672	297.543	303.559	105.983	115.771	130.883	138.355	191.259	121.047	113.813	113.192	127.039	171.181	121.095	115.508	43.894
53.000	314.016	304.204	288.495	280.617	227.928	298.283	306.018	305.636	291.288	247.409	297.639	303.893	106.054	115.771	130.739	138.355	191.354	120.904	113.694	113.192	126.585	171.133	121.095	115.627	30.404
54.000	313.347	304.132	288.734	280.784	227.618	298.355	305.803	305.636	291.861	247.767	297.400	303.750	105.959	115.866	130.859	138.236	191.473	120.689	113.527	113.336	125.989	171.467	120.832	115.508	30.088
55.000	313.252	303.750	288.280	280.474	227.260	298.355	305.970	305.684	293.007	247.433	297.663	303.750	105.911	115.890	130.859	138.307	191.569	120.617	113.216	113.288	125.248	171.420	120.856	115.341	43.037
56.000	313.896	303.870	289.092	281.070	227.546	298.713	305.899	305.565	292.983	247.337	297.448	303.798	106.030	115.795	130.668	138.427	191.473	120.545	113.216	113.312	124.747	171.539	120.832	115.317	51.429
57.000	313.682	304.299	289.402	280.689	227.618	298.594	306.138	305.923	294.320	247.146	297.495	303.822	106.078	115.962	130.548	138.331	191.664	120.474	113.169	113.288	124.246	171.539	120.951	115.460	43.714
58.000	313.896	303.965	288.710	280.784	227.212	298.641	306.400	305.565	294.368	247.242	297.973	303.965	106.150	116.033	130.620	138.283	191.879	120.426	113.049	113.312	123.912	171.682	120.832	115.341	30.539
59.000	313.729	303.941	288.996	280.760	227.116	298.641	306.520	305.660	295.013	247.433	297.973	303.726	105.983	115.842	130.668	138.546	191.951	120.378	113.001	113.312	123.410	171.611	120.856	115.293	30.313
60.000	313.753	303.965	289.522	280.808	226.854	298.546	306.281	305.875	294.941	247.099	298.116	303.798	105.815	115.962	130.525	138.522	191.808	120.211	112.978	113.312	123.171	171.754	120.736	115.246	43.262
61.000	313.777	303.822	288.782	280.569	227.164	298.952	306.329	305.947	295.872	247.385	297.782	303.607	105.863	115.938	130.453	138.498	192.142	120.163	112.906	113.312	122.718	171.706	120.880	115.365	51.474
62.000	313.896	303.893	289.116	280.092	226.758	298.928	306.878	305.803	295.991	247.218	298.188	304.323	106.054	115.651	130.453	138.331	192.142	120.211	112.834	113.312	122.599	171.778	120.689	115.246	42.766
63.000	313.443	303.631	289.211	280.092	226.854	299.095	306.448	305.565	296.421	247.099	298.045	304.204	105.839	116.153	130.453	138.522	192.214	120.044	112.810	113.360	122.336	171.802	120.593	115.293	29.411
64.000	313.610	303.726	289.140	280.808	227.069	299.572	306.806	305.756	296.469	246.764	297.639	303.822	105.863	115.842	130.357	138.498	192.309	120.068	112.643	113.169	121.978	171.921	120.689	115.389	31.216
65.000	313.634	303.344	289.211	280.354	226.806	299.190	307.188	305.756	296.946	247.576	297.877	303.870	105.863	115.842	130.357	138.451	192.237	119.925	112.524	113.192	121.858	171.921	120.713	115.174	44.706
66.000	313.491	303.870	289.259	280.498	226.782	298.737	306.711	305.517	296.851	246.908	298.116	303.846	105.935	115.818	130.405	138.618	192.500	119.925	112.691	113.288	121.835	171.993	120.617	115.293	51.474
67.000	313.658	303.703	288.973	280.307	226.567	299.047	306.663	305.612	297.424	247.075	297.901	303.917	106.054	115.675	130.310	138.594	192.452	119.853	112.476	113.312	121.405	171.921	120.760	115.389	41.593
68.000	313.968	303.392	289.235	280.593	226.663	298.976	306.973	305.827	297.257	246.955	298.045	303.655	105.911	115.795	130.429	138.809	192.357	119.781	112.500	113.192	121.262	171.921	120.927	115.436	28.869
69.000	314.040	303.726	289.283	280.354	226.376	299.931	307.140	305.636	297.042	246.764	297.877	304.061	106.006	115.962	130.310	138.737	192.428	119.686	112.405	113.264	121.190	171.921	120.808	115.293	32.073
70.000	313.324	303.631	288.901	280.259	226.544	299.310	307.093	305.708	297.854	246.669	298.116	303.750	105.911	115.890	130.286	138.713	192.572	119.781	112.405	113.264	120.975	171.993	120.689	115.365	45.879
71.000	313.610	304.419	288.973	279.948	226.758	299.190	307.164	305.827	298.021	246.669	298.188	304.037	106.054	115.795	130.405	138.713	192.572	119.638	112.381	113.192	120.880	172.160	120.760	115.246	51.294
72.000	313.037	303.583	289.283	280.307	226.615	299.453	307.045	305.875	297.806	246.908	297.973	304.037	105.887	116.009	130.214	138.498	192.619	119.781	112.405	113.192	120.617	172.088	120.736	115.150	40.961
73.000	313.252	303.607	289.474	279.757	226.496	299.334	307.069	305.756	298.474	246.836	297.877	303.679	106.174	116.009	130.286	138.665	192.643	119.638	112.309	113.240	120.426	172.112	120.832	115.269	28.599
74.000	313.777	303.965	289.378	280.426	226.591	299.453	306.878	305.445	298.283	246.764	297.973	303.965	105.744	115.723	130.381	138.713	192.643	119.614	112.261	113.288	120.259	172.136	120.760	115.150	32.975
75.000	313.467	303.703	289.665	280.020	226.448	299.620	307.164	305.541	298.522	246.621	297.830	303.989	105.863	115.938	130.286	138.832	192.619	119.614	112.094	113.216	120.092	172.136	120.784	115.317	46.917
76.000	313.873	303.941	289.283	280.163	226.448	299.572	307.069	305.469	298.617	246.788	298.426	304.323	106.197	115.914	130.357	138.665	192.619	119.638	112.405	113.336	120.211	172.231	120.713	115.198	50.888
77.000	313.825	304.204	289.689	280.307	226.973	299.477	307.164	305.970	299.190	246.549	297.734	303.893	105.696	115.818	130.262	138.880	192.667	119.686	112.214	113.216	119.949	172.136	120.736	115.293	39.698
78.000	313.467	303.416	289.092	280.068	226.353	299.405	307.188	305.827	298.952	246.860	298.403	304.156	105.935	115.771	130.357	138.761	192.739	119.567	112.237	113.169	119.972	172.279	120.665	115.246	28.193
79.000	313.801	303.798	289.092	280.307	226.424	299.477	307.188	305.708	299.190	246.836	297.997	303.798	105.911	115.771	130.286	138.689	192.786	119.781	112.237	113.145	119.758	172.279	120.593	115.269	34.103
80.000	313.682	303.798	289.474	280.283	226.353	299.883	307.164	305.565	299.143	246.860	297.877	303.583	105.815	115.627	130.262	138.832	192.810	119.543	112.094	113.216	119.614	172.327	120.736	115.174	47.865
81.000	313.491	304.037	289.211	279.829	226.162	299.620	307.212	305.589	299.381	246.454	298.045	304.275	105.911	115.890	130.334	138.785	192.715	119.423	111.999	113.383	119.590	172.446	120.689	115.198	49.940
82.000	313.920	304.084	289.498	279.996	226.520	299.334	306.997	305.612	299.262	246.860	298.068	303.822	105.696	115.818	130.214	138.856	192.763	119.495	112.190	113.288	119.495	172.231	120.689	115.150	37.758
83.000	313.777	303.917	288.877	280.307	226.257	299.644	307.498	305.923	299.358	246.597	298.092	303.893	106.054	115.866	130.381	138.856	192.786	119.495	112.070	113.312	119.399	172.351	120.641	115.126	28.057
84.000	314.374	303.703	289.617	279.972	226.424	299.907	307.713	305.780	299.453	246.621	297.997	303.893	106.245	115.795	130.238	138.904	192.834	119.495	112.046	113.169	119.376	172.446	120.689	115.365	35.367
85.000	313.777	303.512	288.877	279.901	226.233	299.525	307.212	305.994	299.668	246.549	298.188	303.846	106.126	115.914	130.214	138.856	192.906	119.471	111.999	113.336	119.376	172.327	120.641	115.317	48.451
86.000	313.467	303.893	289.617	280.307	226.329	299.811	307.331	305.994	299.549	246.358	298.188	303.822	105.625	115.723	130.143	138.880	192.715	119.662	111.999	113.145	119.161	172.208	120.689	115.341	49.354
87.000	313.873	303.583	289.283	280.187	225.899	299.596	307.284	305.756	299.763	246.931	298.068	303.846	106.006	115.818	130.262	138.785	192.906	119.519	112.190	113.288	119.161	172.470	120.665	115.102	36.675
88.000	314.087	303.750	288.925	279.925	226.329	299.501	307.451	305.899	300.074	246.287	298.331	303.870	105.720	115.890	130.190	138.952	192.930	119.590	111.975	113.264	119.113	172.375	120.545	115.269	27.967
89.000	313.753	303.583	289.641	280.211	226.544	300.050	307.284	305.732	299.692	246.502	297.686	304.037	106.054	115.938	130.262	138.976	192.954	119.447	111.832	113.216	118.970	172.518	120.832	115.246	35.728
