-----------------------------------------------------
BloodHound 307 VOC Analyser V2017.1
RoboScientific Ltd 
Espace North
Wisbech Road
Littleport
Cambridgeshire, UK
CB6 1RA 
-----------------------------------------------------
Date = 03/03/2021
Time = 12:44:47
Data is protected by RoboScientific Limited
-----------------------------------------------------
Name of the experiment = "5037P"
-----------------------------------------------------
Repeat No. = 4/4
-----------------------------------------------------
Experimental Time (in sec) and Flow Profile :
-----------------------------------------------------
Baseline = 2.00
Absorb = 4.00
Pause = 1.00
Desorb = 5.00
Flush = 18.00
Wait = 5.00
Higher Flow (V) = 4.00
Medium Flow (V) = 3.00
Low Flow (V) = 1.00
-----------------------------------------------------
Total Profile Time = 35 in sec
-----------------------------------------------------
Acquired data point per second = 4
--------------------------------------------------
Total data point stored  = 120
-----------------------------------------------------
Acquired sensor responses from 24 sensors
-----------------------------------------------------

Data Points	 Sen-1	 Sen-2	 Sen-3	 Sen-4	 Sen-5	 Sen-6	 Sen-7	 Sen-8	 Sen-9	 Sen-10	 Sen-11	 Sen-12	 Sen-13	 Sen-14	 Sen-15	 Sen-16	 Sen-17	 Sen-18	 Sen-19	 Sen-20	 Sen-21	 Sen-22	 Sen-23	 Sen-24	Humidity (%r.h.)
0.000	314.159	304.347	289.211	280.689	226.185	300.265	308.549	306.424	303.989	249.128	298.403	303.941	105.935	115.580	130.143	138.809	192.882	119.041	111.450	113.001	115.126	169.868	120.354	114.887	39.157
1.000	313.610	304.323	289.617	280.330	226.090	300.074	307.904	305.732	303.822	249.032	298.737	304.681	105.625	115.675	130.334	139.191	193.001	119.113	111.235	112.834	115.246	169.820	120.307	114.816	27.832
2.000	313.705	303.870	289.020	279.757	226.448	299.978	308.000	306.472	304.395	249.772	298.904	304.228	105.959	115.651	130.047	138.880	192.906	118.922	111.235	112.906	115.031	169.868	120.522	115.031	35.682
3.000	313.467	303.941	289.378	279.566	226.138	299.954	308.143	306.352	304.299	249.390	298.689	304.084	105.839	115.580	130.095	138.928	192.882	119.137	111.306	112.978	115.126	169.725	120.283	114.792	49.489
4.000	313.538	304.084	289.641	280.116	225.851	300.121	308.143	306.161	304.204	249.056	298.665	304.657	105.983	115.627	130.119	139.000	192.954	119.018	111.235	112.906	115.126	169.868	120.378	114.959	48.271
5.000	313.992	303.989	289.235	280.187	226.424	300.121	308.429	306.018	304.252	248.817	298.140	304.347	105.887	115.580	130.334	139.071	192.930	119.041	111.259	112.954	115.174	169.892	120.235	114.887	34.464
6.000	313.825	303.989	289.569	280.163	226.185	300.241	308.143	306.209	304.466	249.080	298.355	304.347	105.815	115.818	130.166	139.262	193.001	118.994	111.330	113.001	115.007	169.749	120.283	114.840	28.328
7.000	313.968	304.156	289.307	279.996	226.353	299.716	308.310	306.114	304.132	249.128	298.570	304.466	105.887	115.747	130.143	139.071	192.882	118.994	111.330	112.978	114.983	169.820	120.283	114.935	38.344
8.000	313.324	303.941	289.450	279.805	226.066	300.432	307.928	306.209	303.941	248.937	298.259	304.610	105.839	115.699	130.119	139.167	193.073	119.041	111.283	112.858	115.007	169.820	120.283	114.768	50.752
9.000	313.777	304.228	289.617	280.665	226.424	300.193	308.286	305.947	303.870	248.770	298.331	303.941	106.197	115.771	130.238	138.952	192.977	118.874	111.354	112.906	114.959	169.820	120.235	114.935	46.105
10.000	313.204	304.299	290.166	280.187	226.424	300.575	308.191	306.066	304.084	249.343	298.880	304.801	106.174	115.556	130.310	139.023	192.954	118.922	111.092	112.834	115.126	169.319	119.901	114.291	31.802
11.000	311.557	304.657	289.283	280.020	226.663	300.169	308.095	306.663	302.628	250.703	299.262	304.872	107.773	115.150	130.095	138.689	191.951	118.731	111.163	112.572	115.962	168.459	119.232	113.789	29.501
12.000	306.305	303.321	289.689	281.285	228.000	300.265	308.358	306.925	299.549	251.038	298.928	304.252	113.383	116.081	129.784	138.236	191.115	118.659	111.306	112.357	119.065	167.886	119.423	114.601	43.082
13.000	298.140	301.578	289.999	281.214	229.050	300.790	307.880	306.496	294.082	251.253	298.355	303.153	121.524	117.609	129.689	138.045	190.328	118.779	111.354	112.405	123.458	167.433	120.522	116.009	51.474
14.000	288.996	299.907	289.832	281.381	229.289	300.002	307.618	306.376	288.161	251.205	297.233	301.721	131.527	119.447	129.522	137.591	189.492	119.376	111.832	112.739	129.617	167.528	121.500	117.346	42.631
15.000	277.848	298.116	290.238	281.811	230.578	299.167	307.140	305.827	282.598	251.205	295.609	299.596	142.246	122.073	129.498	137.257	188.991	120.235	112.309	113.145	135.442	167.839	123.219	119.447	29.321
16.000	266.364	295.036	290.381	281.739	230.602	297.495	306.257	305.159	276.821	250.584	293.031	296.994	152.703	124.437	129.379	137.114	188.370	121.357	112.906	113.694	140.909	168.173	125.177	121.858	32.299
17.000	254.786	292.458	290.071	281.787	230.745	296.111	305.493	304.323	271.640	249.510	290.644	294.320	164.091	127.540	129.570	137.066	187.797	122.646	113.455	114.482	146.066	168.937	128.042	124.604	45.248
18.000	244.998	288.853	290.095	282.002	231.366	294.249	304.586	303.535	267.319	248.722	287.301	291.432	174.523	130.835	129.546	137.209	187.534	124.628	114.434	115.389	151.294	169.677	131.479	127.851	49.534
19.000	235.186	285.057	290.166	281.954	231.796	292.363	303.512	302.485	262.354	248.173	283.720	288.519	184.932	134.678	129.617	137.257	187.391	126.753	115.723	116.439	156.570	170.799	135.442	131.074	40.420
20.000	226.926	281.047	289.737	281.429	232.011	289.832	302.175	301.005	257.746	246.406	278.826	284.723	193.025	138.928	129.952	137.400	186.985	129.020	117.036	117.728	161.202	172.017	139.907	134.655	30.764
21.000	219.716	276.558	289.355	281.261	231.987	287.325	300.336	299.429	253.043	244.640	274.625	281.524	199.901	142.963	130.071	137.567	186.890	131.503	118.874	119.304	166.048	173.688	144.132	137.997	35.096
22.000	219.716	272.261	289.164	280.832	232.297	284.675	298.570	297.973	249.176	242.563	269.086	277.537	200.259	147.355	130.429	137.854	186.818	134.010	120.569	120.951	170.274	175.741	149.480	141.721	45.293
23.000	224.872	268.227	289.187	280.330	232.369	282.479	296.684	296.397	244.950	240.199	263.905	273.908	194.911	151.629	130.668	138.355	186.723	136.803	122.885	122.885	174.834	177.866	155.162	145.732	46.240
24.000	229.766	263.261	288.304	279.972	232.273	279.710	294.225	294.463	240.605	238.265	258.080	269.778	189.850	156.093	131.217	139.000	186.794	139.692	125.320	125.057	179.298	180.897	160.868	149.408	38.119
25.000	233.801	259.370	288.447	279.543	232.393	276.296	291.288	291.957	237.645	234.971	252.446	266.126	185.839	160.271	131.456	139.644	186.985	143.440	128.233	127.087	182.569	183.547	166.359	153.228	32.975
26.000	233.610	260.301	287.922	279.543	231.867	275.985	290.477	292.792	236.260	233.801	251.730	266.579	186.937	159.674	132.005	139.596	187.224	143.536	129.116	126.776	184.168	185.529	167.672	152.536	38.299
27.000	232.034	261.542	287.397	279.375	232.106	276.535	290.524	292.936	236.284	232.321	251.826	267.797	188.155	158.719	131.981	139.596	187.319	142.772	128.973	126.227	184.264	186.579	167.242	151.414	45.338
28.000	230.817	261.852	287.421	279.137	231.748	277.251	291.193	293.700	236.308	231.867	252.064	268.489	189.205	157.931	131.861	139.382	187.415	142.199	128.734	125.774	184.120	187.081	167.099	151.008	44.255
29.000	230.459	262.187	287.206	279.590	231.772	277.871	290.954	294.153	236.212	231.748	251.921	269.182	189.301	157.502	132.148	139.501	187.415	141.697	128.615	125.487	184.431	187.463	166.955	150.459	36.495
30.000	235.902	259.656	287.827	279.256	232.154	276.558	289.904	292.840	235.305	230.148	249.152	266.890	184.097	159.793	132.148	139.620	187.415	142.461	129.570	126.132	185.028	188.513	169.605	152.178	33.336
31.000	246.764	265.935	287.182	278.946	231.939	273.264	286.752	290.405	233.586	228.477	244.067	271.712	174.476	154.064	132.411	140.002	187.367	145.732	132.673	128.352	186.579	190.304	174.905	147.737	39.563
32.000	283.004	281.763	286.705	277.967	231.796	270.566	283.004	289.856	232.942	228.453	249.199	283.267	136.063	137.042	132.983	140.862	187.367	149.026	136.278	129.737	187.343	190.829	169.605	135.395	46.601
33.000	297.830	291.336	285.845	277.489	231.223	268.203	281.142	290.859	233.228	229.790	259.728	291.145	121.644	127.707	133.580	141.578	187.749	151.318	138.737	128.018	187.176	188.728	158.313	127.994	45.022
34.000	305.636	296.755	285.463	276.869	231.270	268.250	280.736	293.676	233.944	232.727	271.091	295.013	114.673	123.410	134.010	142.055	188.131	151.223	139.071	125.511	186.484	186.197	148.262	124.079	33.833
35.000	308.811	299.023	285.177	276.726	230.841	271.068	282.479	296.397	236.594	236.403	279.805	297.925	111.068	120.522	134.559	141.888	188.537	148.477	137.400	122.981	183.929	182.545	139.382	121.429	29.772
36.000	311.223	301.148	284.866	277.418	230.602	274.887	285.797	298.976	240.605	239.865	285.320	299.214	108.967	118.946	134.511	141.530	188.442	144.490	134.082	120.378	179.226	179.155	133.151	119.972	39.698
37.000	311.605	301.267	284.723	277.322	230.554	279.328	288.638	300.408	246.120	242.515	289.068	300.671	107.892	117.681	134.607	140.909	188.561	139.525	130.453	118.516	173.330	175.765	129.641	118.827	50.707
38.000	312.512	302.485	284.747	278.397	230.554	283.482	292.124	302.055	252.184	245.404	291.623	301.244	107.057	117.346	134.702	140.408	188.585	135.228	127.182	117.155	166.836	173.091	126.943	118.086	44.571
39.000	313.204	302.843	285.559	278.707	230.912	287.301	294.535	303.297	258.152	247.552	293.174	301.411	106.818	116.845	134.464	139.811	188.585	132.220	124.747	115.938	161.130	171.133	125.272	117.418	31.441
40.000	313.634	302.867	285.583	279.590	230.339	289.784	297.400	303.917	263.404	249.367	294.726	302.389	106.436	116.582	134.225	139.405	188.704	129.522	122.384	115.126	155.568	169.558	124.031	116.845	30.178
41.000	313.276	303.535	285.559	279.710	230.125	291.814	299.023	304.466	267.248	250.417	295.968	302.795	106.245	116.296	133.652	139.071	188.895	127.373	120.378	114.720	150.698	168.674	123.195	116.559	43.262
42.000	313.085	303.703	286.561	280.044	229.957	292.936	300.480	304.705	270.972	250.823	296.349	302.867	106.054	116.177	133.318	138.737	189.038	125.965	118.803	114.123	146.830	168.412	122.599	116.177	51.339
43.000	313.658	303.846	286.967	280.474	230.268	294.320	301.817	305.039	274.505	250.703	296.851	303.177	106.388	115.914	133.055	138.594	189.182	124.890	117.681	113.885	143.392	167.982	122.073	116.033	41.954
44.000	313.491	303.535	287.373	280.999	229.886	295.204	302.604	305.254	277.442	251.062	297.090	303.201	106.436	115.747	132.363	138.164	189.349	124.150	116.797	113.598	140.551	167.815	121.906	116.033	29.095
45.000	313.777	303.893	287.039	280.307	229.432	296.182	303.631	305.589	279.972	251.085	297.042	303.512	106.197	115.795	132.029	138.140	189.611	123.386	116.320	113.574	137.949	167.695	121.405	115.627	32.163
46.000	314.111	303.870	287.683	280.903	229.480	296.397	303.965	305.780	281.548	250.990	297.424	303.440	106.054	115.747	131.861	138.236	189.850	122.790	115.508	113.336	135.514	167.552	121.166	115.604	45.834
47.000	313.562	304.084	288.113	280.951	229.122	296.899	304.013	305.565	284.365	250.966	297.352	303.607	106.174	115.771	131.670	138.092	189.969	122.312	115.078	113.073	133.270	167.767	121.071	115.604	51.023
48.000	313.705	303.655	288.089	280.879	229.146	297.042	304.992	306.114	286.227	251.157	297.663	304.013	106.006	115.675	131.503	138.188	190.304	122.097	114.744	113.097	131.265	167.863	120.904	115.293	39.743
49.000	313.753	303.941	288.495	280.999	228.907	297.352	304.777	305.708	287.540	251.205	298.355	304.347	105.911	115.818	131.456	138.164	190.566	121.715	114.314	113.121	130.071	167.863	120.784	115.007	28.193
50.000	313.801	303.822	288.447	280.593	228.931	297.949	305.254	305.970	289.450	251.467	297.901	304.347	105.887	115.675	131.169	138.188	190.709	121.309	113.932	113.192	128.543	167.910	120.784	115.174	34.600
51.000	314.207	304.228	288.853	280.975	228.453	298.021	305.326	306.018	290.405	250.966	297.710	303.893	105.959	115.699	130.954	138.116	190.924	121.285	113.932	113.049	127.349	167.791	120.641	115.222	48.316
52.000	313.777	304.156	288.710	280.617	228.215	298.522	305.851	305.970	291.623	250.942	297.806	304.156	105.911	115.747	130.787	138.092	191.044	120.784	113.646	113.073	126.418	168.077	120.713	115.126	50.030
53.000	313.467	304.061	289.164	280.999	228.334	298.116	305.899	305.827	292.100	250.584	297.925	304.037	105.983	115.747	130.668	138.236	191.282	120.832	113.336	113.025	125.487	168.006	120.689	115.102	37.577
54.000	313.682	304.156	288.662	280.545	228.071	298.498	306.090	305.827	292.983	250.751	298.140	304.084	105.815	115.675	130.644	138.355	191.306	120.641	113.312	113.025	124.819	168.149	120.665	115.222	27.877
55.000	314.374	303.655	288.758	280.808	227.976	298.904	306.854	306.209	294.177	250.847	297.949	303.822	106.054	115.651	130.572	138.474	191.259	120.426	113.145	112.930	124.079	168.101	120.641	115.031	35.953
56.000	313.347	304.061	289.259	280.760	227.689	298.713	306.352	305.851	294.344	250.775	297.901	303.726	105.959	115.771	130.644	138.427	191.545	120.426	112.978	113.073	123.458	168.125	120.617	115.078	49.083
57.000	313.109	304.228	288.853	280.330	227.379	298.498	306.329	305.899	295.227	250.512	298.498	304.753	105.959	115.747	130.525	138.355	191.521	120.187	112.882	112.906	122.957	168.388	120.569	115.007	48.767
58.000	314.159	304.275	289.355	280.569	227.188	299.023	306.902	306.305	295.800	250.847	298.331	303.703	105.935	115.627	130.453	138.498	191.641	120.140	112.858	113.049	122.551	168.268	120.569	115.055	35.818
59.000	313.944	304.490	289.283	280.665	227.427	299.023	306.424	306.209	296.755	250.489	298.045	303.941	106.054	115.484	130.477	138.403	191.808	120.140	112.763	112.978	122.121	168.221	120.569	115.102	27.967
60.000	313.562	303.631	288.877	280.402	227.260	299.238	306.663	305.899	296.946	250.417	297.877	304.108	105.792	115.675	130.572	138.522	191.760	119.972	112.596	112.954	121.620	168.483	120.665	115.126	37.848
61.000	313.777	303.870	288.996	280.354	227.164	299.334	306.734	305.994	297.686	250.584	298.164	304.108	106.054	115.508	130.501	138.379	191.832	119.925	112.619	112.954	121.262	168.483	120.593	115.102	50.527
62.000	313.753	304.108	289.474	280.808	227.260	299.334	306.973	306.161	297.615	250.083	298.068	304.180	105.720	115.651	130.429	138.665	191.951	119.925	112.524	112.954	120.975	168.507	120.617	115.055	46.827
63.000	313.705	303.917	289.235	279.925	227.498	299.381	307.140	306.114	298.164	250.154	298.164	304.299	106.054	115.795	130.405	138.689	191.975	119.901	112.405	113.097	120.665	168.531	120.522	115.055	32.930
64.000	314.207	303.655	289.068	280.283	226.949	299.429	307.140	305.947	298.307	250.011	298.307	304.538	105.744	115.675	130.357	138.689	192.142	119.949	112.357	112.978	120.307	168.555	120.402	114.911	28.644
65.000	313.849	303.965	289.044	280.593	227.140	299.692	307.212	306.066	298.952	250.274	298.307	304.347	106.293	115.795	130.596	138.665	192.094	119.805	112.381	113.049	120.354	168.603	120.474	115.055	39.833
66.000	313.658	304.228	289.689	280.641	227.212	299.334	307.069	305.851	298.641	249.868	298.355	303.989	105.815	115.580	130.238	138.522	192.094	119.662	112.357	112.882	120.044	168.531	120.426	114.935	51.249
67.000	313.849	303.917	289.450	280.426	227.093	299.954	307.188	306.615	299.310	250.393	297.973	304.132	106.317	115.508	130.334	138.570	192.261	119.567	112.214	112.882	119.710	168.650	120.545	115.007	45.067
68.000	313.753	304.252	289.187	280.092	226.758	299.549	307.331	306.376	299.477	250.441	298.498	304.204	106.006	115.604	130.238	138.761	192.285	119.662	112.190	112.978	119.471	168.627	120.545	115.007	31.261
69.000	313.801	304.037	289.569	280.402	227.331	299.644	307.021	306.042	299.405	249.820	298.283	304.347	105.887	115.604	130.477	138.594	192.428	119.543	112.070	112.954	119.280	168.674	120.426	115.031	29.591
70.000	314.040	304.156	289.235	280.259	226.782	299.644	307.331	306.114	299.740	249.868	298.068	303.941	105.601	115.771	130.310	138.737	192.452	119.423	112.094	113.025	119.256	168.746	120.498	114.983	43.037
71.000	314.231	303.822	288.853	280.450	226.806	299.811	307.379	306.329	299.954	250.274	298.474	304.395	106.030	115.747	130.214	138.737	192.476	119.567	111.951	112.882	118.970	168.770	120.593	114.959	51.610
72.000	313.586	304.037	289.737	280.020	226.663	299.740	307.594	306.305	299.978	250.250	298.116	304.299	105.863	115.723	130.381	138.832	192.428	119.543	111.999	113.001	118.850	168.627	120.474	115.174	42.811
73.000	313.324	303.846	289.378	280.402	226.472	299.596	307.284	305.994	300.289	250.130	298.426	304.132	106.126	115.604	130.286	138.809	192.476	119.686	111.999	112.954	118.659	168.722	120.450	115.031	29.682
74.000	313.419	304.013	289.450	280.521	227.021	299.501	307.188	306.090	300.026	250.154	298.737	304.705	105.887	115.627	130.166	138.761	192.476	119.399	112.046	113.025	118.683	168.746	120.474	114.935	30.945
75.000	314.087	303.870	289.307	279.901	226.591	299.978	307.570	306.185	300.671	250.321	298.403	303.917	105.792	115.675	130.095	138.856	192.452	119.352	111.808	112.930	118.373	168.841	120.474	114.983	44.932
76.000	314.111	303.941	289.880	280.092	226.926	299.692	307.737	305.970	300.671	249.987	298.307	304.084	106.102	115.532	130.190	138.785	192.548	119.471	111.855	112.906	118.445	168.937	120.498	115.078	51.339
77.000	313.610	304.013	289.546	280.235	226.567	299.716	307.475	306.114	300.957	250.178	298.188	304.514	106.150	115.627	130.214	138.856	192.524	119.352	111.903	112.906	118.277	168.865	120.498	114.983	41.097
78.000	313.658	304.108	289.641	280.068	227.069	299.763	307.260	305.899	300.909	250.035	298.045	304.299	105.983	115.627	130.238	138.832	192.667	119.256	111.879	112.978	118.325	168.913	120.545	115.031	28.418
79.000	313.825	304.490	289.784	280.378	226.615	299.763	307.331	306.185	301.291	249.749	298.235	304.084	105.887	115.723	130.190	138.809	192.595	119.352	111.855	112.906	117.967	168.770	120.522	114.959	32.840
80.000	313.968	304.180	289.498	280.330	226.735	300.098	307.833	305.899	301.315	249.677	298.331	303.965	105.983	115.699	130.214	138.809	192.619	119.399	111.855	112.906	117.919	168.913	120.450	115.031	46.962
81.000	313.753	304.037	289.426	280.139	226.663	299.835	307.331	306.042	301.530	250.011	298.737	304.562	105.815	115.484	130.190	138.856	192.595	119.280	111.736	112.906	117.848	168.889	120.450	114.959	50.707
82.000	313.705	304.347	289.641	279.948	226.400	300.002	307.618	306.257	301.267	250.035	298.307	303.917	105.959	115.675	130.262	138.809	192.643	119.495	111.760	113.001	117.800	168.818	120.402	114.935	39.698
83.000	313.443	304.681	289.402	279.805	226.472	299.978	307.689	306.042	301.124	250.345	298.498	304.180	106.030	115.747	130.262	138.832	192.619	119.185	111.712	112.930	117.776	169.032	120.498	114.911	28.283
84.000	313.777	304.084	289.164	280.283	226.878	300.121	307.856	306.520	301.697	250.107	298.474	304.466	105.768	115.508	130.286	138.832	192.786	119.328	111.855	112.954	117.466	169.009	120.378	115.007	33.156
85.000	313.634	303.583	289.235	280.402	226.758	300.026	307.689	305.994	301.745	249.844	298.283	304.395	105.720	115.627	130.190	138.761	192.667	119.280	111.688	112.978	117.681	169.056	120.354	114.887	47.368
86.000	313.610	304.443	289.235	279.996	226.615	299.692	307.475	306.209	301.673	250.107	298.498	304.180	106.126	115.556	130.286	138.737	192.643	119.328	111.593	112.858	117.370	168.985	120.450	115.007	50.527
87.000	313.920	304.323	289.355	280.307	226.663	299.716	307.475	305.851	301.649	250.250	298.474	304.252	105.911	115.556	130.238	138.832	192.595	119.209	111.664	112.906	117.609	169.128	120.545	114.959	38.435
88.000	313.228	303.965	289.378	279.972	226.711	300.002	307.713	306.185	301.482	249.319	298.641	304.681	105.792	115.651	130.238	138.928	192.667	119.256	111.664	112.954	117.370	168.985	120.426	115.007	28.057
89.000	313.753	304.108	289.235	280.020	226.329	299.763	307.904	306.185	302.342	250.083	298.307	304.466	105.839	115.604	130.190	139.047	192.786	119.209	111.617	112.954	117.275	169.128	120.307	114.887	35.276
