-----------------------------------------------------
BloodHound 307 VOC Analyser V2017.1
RoboScientific Ltd 
Espace North
Wisbech Road
Littleport
Cambridgeshire, UK
CB6 1RA 
-----------------------------------------------------
Date = 03/03/2021
Time = 12:28:23
Data is protected by RoboScientific Limited
-----------------------------------------------------
Name of the experiment = "5478P"
-----------------------------------------------------
Repeat No. = 1/4
-----------------------------------------------------
Experimental Time (in sec) and Flow Profile :
-----------------------------------------------------
Baseline = 2.00
Absorb = 4.00
Pause = 1.00
Desorb = 5.00
Flush = 18.00
Wait = 5.00
Higher Flow (V) = 4.00
Medium Flow (V) = 3.00
Low Flow (V) = 1.00
-----------------------------------------------------
Total Profile Time = 35 in sec
-----------------------------------------------------
Acquired data point per second = 4
--------------------------------------------------
Total data point stored  = 120
-----------------------------------------------------
Acquired sensor responses from 24 sensors
-----------------------------------------------------

Data Points	 Sen-1	 Sen-2	 Sen-3	 Sen-4	 Sen-5	 Sen-6	 Sen-7	 Sen-8	 Sen-9	 Sen-10	 Sen-11	 Sen-12	 Sen-13	 Sen-14	 Sen-15	 Sen-16	 Sen-17	 Sen-18	 Sen-19	 Sen-20	 Sen-21	 Sen-22	 Sen-23	 Sen-24	Humidity (%r.h.)
0.000	313.658	303.464	289.641	280.116	225.684	299.811	307.666	305.660	300.480	243.350	297.973	303.488	105.887	116.081	130.166	139.071	193.264	119.567	111.855	113.574	118.659	175.717	120.784	115.508	47.278
1.000	313.443	303.607	289.331	279.734	225.875	299.716	307.284	305.350	300.527	243.780	298.068	303.870	105.863	116.009	130.334	139.071	193.312	119.399	111.832	113.503	118.755	175.741	120.784	115.508	33.742
2.000	313.538	303.893	289.331	279.662	226.138	299.429	307.498	305.111	300.408	243.350	298.116	303.774	105.983	116.081	130.166	139.119	193.240	119.471	111.784	113.431	118.683	175.693	120.856	115.508	28.463
3.000	313.610	303.416	289.307	280.020	225.899	299.549	307.284	305.421	300.503	243.518	297.686	303.726	105.983	116.009	130.095	139.119	193.288	119.567	111.951	113.503	118.588	175.693	120.832	115.508	39.563
4.000	313.443	303.822	289.593	280.020	225.565	299.692	307.713	305.350	300.289	243.040	297.830	303.703	105.887	116.129	130.143	139.095	193.359	119.543	111.784	113.550	118.540	175.621	120.760	115.484	51.023
5.000	313.228	303.750	289.259	280.163	225.541	299.405	307.642	305.278	300.551	243.565	298.092	303.774	106.054	116.153	130.262	138.976	193.312	119.423	111.832	113.455	118.588	175.789	120.808	115.484	45.970
6.000	313.347	304.108	289.737	279.972	225.827	299.644	307.666	305.421	300.551	242.921	297.758	303.774	105.887	116.081	130.381	139.047	193.383	119.567	111.975	113.598	118.755	175.717	120.784	115.389	31.983
7.000	313.634	303.798	289.569	279.996	225.589	299.381	307.546	305.493	300.766	243.398	297.734	303.512	105.887	116.224	130.381	139.214	193.336	119.352	111.688	113.646	118.659	175.717	120.808	115.460	29.230
8.000	314.374	303.655	289.450	280.068	225.732	299.835	307.809	305.684	300.694	243.231	297.758	303.607	106.197	116.153	130.357	139.047	193.240	119.423	111.736	113.479	118.636	175.669	120.784	115.556	42.044
9.000	313.753	303.440	289.211	279.662	225.589	299.477	307.713	305.445	300.360	243.159	298.164	303.750	106.078	115.962	130.166	139.023	193.383	119.447	111.832	113.431	118.540	175.621	120.856	115.436	51.564
10.000	312.870	303.631	289.713	280.068	225.947	299.214	307.427	305.326	300.217	243.565	298.283	304.466	106.341	115.675	130.143	139.167	193.240	119.376	111.736	113.383	118.707	175.263	120.569	114.816	43.623
11.000	311.485	303.965	289.546	280.068	226.042	299.859	307.379	305.780	299.525	244.783	299.095	305.016	107.821	115.508	130.286	138.785	192.572	119.065	111.688	113.336	119.638	174.213	119.901	114.314	30.133
12.000	306.400	302.867	289.378	280.665	227.618	300.074	307.546	306.138	296.851	245.260	298.617	304.252	112.357	116.439	129.952	138.236	191.473	118.994	111.712	112.930	121.644	173.544	119.853	114.840	30.358
13.000	298.546	301.673	289.546	280.689	228.788	299.907	307.880	305.947	292.386	245.929	298.092	302.915	120.713	117.418	129.665	137.854	190.757	119.185	112.046	112.906	125.559	173.091	120.736	116.368	43.759
14.000	289.259	299.978	289.569	282.169	229.193	299.596	307.116	305.756	286.561	245.666	296.564	301.244	130.262	119.710	129.713	137.591	189.778	119.567	112.142	113.145	130.668	173.115	121.691	117.728	51.249
15.000	278.230	297.495	289.808	281.500	229.552	298.785	306.806	305.636	281.309	245.809	295.538	299.381	141.459	122.264	129.546	137.305	189.158	120.474	112.834	113.765	136.421	173.210	123.386	119.781	42.089
16.000	267.343	295.204	290.166	281.715	230.196	296.970	305.947	304.395	276.033	245.069	293.174	297.281	152.655	124.580	129.522	137.257	188.561	121.858	113.312	114.219	141.578	173.855	125.821	122.384	29.997
17.000	256.529	291.909	289.808	282.240	230.888	295.920	305.278	303.941	271.354	243.995	290.381	294.129	163.183	127.612	129.498	136.923	188.012	123.315	114.267	115.078	146.520	174.476	128.304	124.962	31.938
18.000	245.571	288.280	289.760	281.596	231.342	293.867	304.013	302.700	266.078	243.780	286.681	290.954	173.425	131.384	129.546	137.018	187.654	125.081	114.959	116.033	152.082	175.263	131.766	128.209	44.075
19.000	236.427	284.914	290.095	282.049	231.843	291.861	303.177	302.127	261.614	242.372	282.742	287.636	183.691	135.037	129.928	136.970	187.415	127.182	116.391	117.132	157.048	176.338	135.824	131.551	49.218
20.000	227.904	280.474	289.713	281.930	231.963	289.904	301.626	300.623	256.529	241.035	278.325	284.341	192.452	138.880	129.856	137.233	187.224	129.737	117.943	118.492	162.061	177.842	140.408	135.013	40.646
21.000	220.336	275.794	288.996	281.118	232.130	287.540	299.931	299.119	251.921	240.008	273.598	280.569	199.495	143.559	130.143	137.591	187.033	132.220	119.567	119.758	166.932	179.370	145.278	138.832	31.351
22.000	218.952	272.022	289.020	281.214	232.225	284.317	297.806	297.448	247.791	237.215	268.131	277.012	200.975	147.403	130.477	137.782	187.009	134.535	121.500	121.691	171.396	181.399	150.459	142.127	35.637
23.000	223.870	267.797	288.829	280.354	231.867	281.452	295.395	295.609	243.088	235.329	262.712	273.240	196.176	151.796	130.859	138.427	187.009	137.567	123.721	123.530	176.075	183.118	155.735	145.947	45.067
24.000	229.170	263.619	288.304	279.566	232.034	278.516	293.127	293.628	239.387	232.870	257.125	269.540	190.972	156.451	131.217	138.904	186.961	140.575	126.681	125.702	180.468	185.744	161.679	150.053	45.834
25.000	232.965	259.059	287.731	279.113	232.130	275.221	289.880	291.455	235.759	230.483	251.515	265.720	187.224	160.892	131.838	139.596	187.057	143.965	129.617	127.660	184.073	188.155	167.337	153.777	39.066
26.000	231.748	259.656	287.707	278.874	231.772	275.150	288.925	291.766	234.971	229.002	250.584	266.555	187.845	160.008	132.052	139.740	187.319	144.204	130.453	127.134	185.338	189.946	168.555	152.870	33.381
27.000	230.483	260.372	287.254	279.137	231.390	276.344	289.808	292.959	234.565	228.262	251.085	267.677	189.373	158.838	132.172	139.740	187.367	143.536	130.071	126.681	185.290	190.781	168.101	151.629	37.262
28.000	229.623	262.019	287.445	279.447	231.557	276.487	289.641	292.697	234.947	227.809	251.133	268.131	190.638	158.122	132.267	139.405	187.534	143.106	130.119	126.227	185.410	191.426	167.719	150.936	45.022
29.000	229.265	262.234	287.373	279.710	231.676	277.012	289.880	293.580	235.138	227.331	251.300	268.895	190.996	157.430	132.315	139.429	187.582	142.366	129.928	125.893	185.266	191.641	167.910	150.650	45.067
30.000	234.684	260.587	287.182	279.232	231.724	275.962	288.591	292.554	234.231	226.448	248.937	267.105	185.362	159.244	132.411	139.501	187.534	143.321	130.763	126.657	185.887	192.595	170.011	152.130	38.209
31.000	247.576	265.982	286.752	278.874	231.652	272.834	285.726	290.453	232.607	224.514	243.613	271.712	175.025	154.207	132.602	139.931	187.534	146.400	134.344	129.044	187.296	194.100	175.359	148.072	33.697
32.000	285.344	283.004	286.108	277.704	231.175	269.134	281.811	289.522	232.225	224.467	249.701	284.461	135.371	136.588	133.007	140.957	187.630	149.599	137.591	129.952	187.701	194.720	169.200	135.275	37.893
33.000	298.212	291.861	285.559	277.203	231.056	267.248	279.375	290.715	232.345	226.353	260.563	291.264	120.999	127.397	133.652	141.530	188.036	151.676	140.122	128.376	187.654	192.715	157.478	127.851	47.188
34.000	305.421	296.493	285.177	276.845	230.984	268.609	279.590	293.556	233.347	229.313	272.404	295.395	113.789	122.742	134.106	141.912	188.107	151.127	140.146	125.201	186.723	189.540	146.162	123.840	47.233
35.000	309.719	299.214	285.320	277.227	230.841	271.139	282.145	296.540	236.069	232.154	280.426	297.615	110.686	120.354	134.535	141.912	188.537	148.239	137.806	122.455	184.001	186.412	138.069	121.429	36.269
36.000	310.483	300.766	285.033	277.275	230.507	275.221	285.248	298.641	240.677	235.496	286.323	299.549	108.895	118.898	135.037	141.745	188.823	143.607	134.368	120.354	179.107	183.547	132.769	120.211	28.824
37.000	311.891	302.055	284.819	278.039	230.721	280.402	288.925	300.647	246.382	238.552	289.546	300.217	107.511	118.277	134.822	141.029	188.632	138.641	130.429	118.421	172.781	180.253	129.426	119.328	37.713
38.000	312.583	302.366	284.962	278.468	230.698	284.270	291.957	301.840	252.160	241.035	292.028	301.196	107.129	117.394	134.750	140.169	188.752	134.893	127.564	117.299	166.311	177.770	126.753	118.373	49.895
39.000	313.156	303.010	285.177	279.137	230.292	287.636	294.607	302.724	258.271	242.754	293.509	301.411	106.842	117.036	134.416	139.620	188.752	131.288	124.604	116.391	160.056	175.932	125.057	117.752	46.872
40.000	313.514	302.652	285.272	279.638	230.339	290.500	296.970	303.535	263.142	244.067	294.631	302.007	106.532	116.773	134.106	139.286	188.919	129.044	122.527	115.556	155.066	174.881	124.103	117.466	33.787
41.000	313.204	303.488	285.678	279.972	230.220	291.837	299.023	304.204	267.486	244.759	295.705	302.604	106.221	116.630	133.652	138.713	189.038	127.349	120.545	114.983	150.698	174.237	123.434	117.036	28.869
42.000	313.467	303.726	286.585	280.068	229.886	293.437	300.169	304.275	271.354	245.404	296.159	302.843	106.102	116.463	133.318	138.451	189.301	125.821	119.065	114.625	146.567	173.759	122.622	116.559	39.518
43.000	313.682	303.201	286.323	280.498	229.743	294.535	301.530	304.729	274.243	245.356	296.564	302.652	106.174	116.487	132.888	138.427	189.373	124.652	118.015	114.219	143.297	173.521	122.073	116.487	50.843
44.000	312.965	303.440	287.063	280.760	229.170	294.965	302.079	304.920	276.511	245.523	296.660	302.939	106.054	116.272	132.458	138.260	189.635	123.935	117.155	114.004	140.384	173.377	121.954	116.344	45.834
45.000	313.634	303.464	287.445	280.736	229.241	295.872	302.819	304.872	279.041	245.690	297.281	303.344	106.221	116.320	132.196	138.331	189.874	123.243	116.200	113.956	138.307	173.377	121.906	116.224	32.208
46.000	313.443	303.416	287.421	280.760	229.146	296.421	303.440	305.565	281.094	245.714	297.185	303.201	106.174	116.272	132.076	138.307	190.113	122.813	115.866	113.789	136.063	173.282	121.644	116.009	29.230
47.000	313.371	303.870	288.137	281.166	228.835	296.708	303.703	305.230	282.956	245.499	297.161	303.058	106.293	116.200	131.575	138.188	190.447	122.622	115.508	113.765	134.392	173.497	121.500	116.009	40.871
48.000	313.300	303.321	288.256	280.593	228.549	296.755	304.299	305.016	284.461	246.024	297.519	303.225	105.863	116.057	131.432	138.236	190.614	122.002	115.055	113.718	132.912	173.568	121.429	115.890	51.339
49.000	314.040	303.703	288.782	280.569	228.310	297.472	304.729	305.039	285.917	245.475	297.281	303.464	106.030	116.177	131.312	138.092	190.757	121.930	114.864	113.646	131.527	173.640	121.214	115.771	44.751
50.000	314.111	303.965	288.304	281.381	228.239	297.758	304.825	305.183	287.516	245.213	297.328	303.201	106.150	116.009	131.145	138.164	190.972	121.596	114.553	113.598	130.310	173.688	121.262	115.866	31.306
51.000	313.634	303.297	288.662	281.047	227.904	297.758	304.992	305.326	288.686	245.523	297.663	303.583	105.983	116.009	131.002	138.188	191.235	121.405	114.314	113.646	129.164	173.712	121.166	115.866	29.591
52.000	313.467	303.750	288.471	280.378	228.000	298.116	305.326	305.063	289.450	244.998	297.304	303.726	106.054	116.057	131.002	138.331	191.282	121.214	114.004	113.431	128.304	173.855	121.357	115.723	42.495
53.000	313.896	303.321	288.853	280.784	227.427	298.307	305.851	305.350	290.357	245.236	297.448	303.607	106.054	116.009	130.906	138.307	191.354	120.999	113.861	113.503	127.636	173.855	121.095	115.771	51.474
54.000	313.300	304.108	288.996	280.712	227.594	298.140	305.517	305.254	290.906	244.878	297.877	303.679	105.983	116.057	130.811	138.427	191.593	120.808	113.789	113.527	126.729	173.855	121.023	115.747	43.533
55.000	313.610	303.535	289.092	280.903	227.737	298.355	305.589	305.278	291.623	245.069	297.376	303.297	105.887	116.033	130.835	138.451	191.712	120.713	113.527	113.479	126.394	173.974	121.047	115.651	30.449
56.000	313.514	303.512	288.949	280.521	227.570	298.665	305.756	305.326	292.410	245.236	297.901	303.464	105.887	116.057	130.596	138.474	191.664	120.617	113.479	113.527	125.941	173.998	121.095	115.675	30.358
57.000	313.682	303.631	288.996	280.545	227.331	298.808	306.018	305.254	293.150	244.807	297.639	303.607	105.983	115.962	130.716	138.236	191.903	120.569	113.407	113.574	125.296	173.998	121.071	115.604	43.894
58.000	313.538	303.321	289.378	280.521	227.451	298.928	306.233	305.278	293.174	244.544	297.400	303.703	106.245	116.129	130.811	138.522	192.023	120.522	113.360	113.527	124.962	174.213	121.142	115.699	51.519
59.000	313.562	303.917	289.235	280.617	227.164	298.856	305.994	305.493	293.938	245.069	297.639	303.488	106.030	116.224	130.548	138.427	191.999	120.450	113.288	113.550	124.532	174.070	120.927	115.580	41.322
60.000	313.944	303.392	289.068	280.068	227.284	298.808	306.496	305.636	294.153	244.472	297.137	303.679	106.174	116.057	130.525	138.546	192.142	120.354	113.073	113.455	124.174	174.308	121.166	115.651	29.095
61.000	314.016	304.108	289.546	281.094	226.830	298.737	306.233	305.207	294.440	244.568	297.591	303.392	105.935	116.033	130.381	138.474	192.142	120.163	113.121	113.527	124.007	174.261	121.047	115.723	31.802
62.000	313.849	303.488	289.068	280.402	226.997	299.047	306.615	305.780	295.156	244.568	297.591	303.297	105.983	115.890	130.477	138.355	192.214	120.140	112.882	113.455	123.697	174.332	121.023	115.627	45.293
63.000	313.586	303.726	289.355	280.665	226.949	299.262	306.663	305.589	295.227	244.663	297.734	303.607	106.245	115.914	130.357	138.618	192.214	120.283	112.978	113.431	123.148	174.332	121.142	115.699	51.339
64.000	313.992	303.583	288.782	280.760	226.973	299.262	306.830	305.374	295.442	245.069	297.472	303.440	105.983	116.153	130.357	138.594	192.333	120.211	112.834	113.503	123.267	174.285	120.927	115.580	41.277
65.000	313.419	303.535	289.307	280.020	226.782	299.214	306.711	305.493	295.753	244.496	297.352	303.583	106.150	116.248	130.477	138.594	192.524	120.235	112.858	113.383	122.861	174.404	121.095	115.627	28.689
66.000	313.920	303.034	289.092	280.641	226.902	298.952	306.854	305.923	295.991	244.449	297.686	303.392	106.174	116.081	130.262	138.641	192.452	120.092	112.882	113.431	122.718	174.428	120.975	115.532	32.975
67.000	313.896	303.201	289.020	280.617	226.376	298.641	306.376	305.565	296.278	244.520	297.830	303.464	105.959	115.986	130.405	138.665	192.643	119.996	112.667	113.407	122.503	174.356	121.118	115.699	47.007
68.000	313.873	303.655	289.426	280.211	226.376	299.143	306.520	305.493	296.564	244.449	297.710	303.941	106.102	116.200	130.238	138.761	192.739	120.068	112.691	113.407	122.240	174.428	120.975	115.604	50.752
69.000	313.538	304.180	289.498	280.330	226.448	298.976	306.448	305.350	296.827	244.616	297.400	303.464	105.839	116.033	130.334	138.570	192.715	119.853	112.739	113.574	122.288	174.523	120.999	115.556	39.112
70.000	313.896	303.941	288.877	279.996	226.591	299.262	306.615	305.684	296.946	244.186	297.710	303.750	105.935	116.081	130.310	138.641	192.763	119.996	112.667	113.407	121.978	174.523	121.047	115.675	28.102
71.000	313.849	303.798	289.235	280.593	226.448	299.262	306.902	305.398	296.660	244.329	298.140	304.108	105.959	116.033	130.334	138.546	192.572	119.853	112.739	113.550	121.882	174.523	120.832	115.484	34.194
72.000	314.016	303.559	289.259	280.784	226.758	299.501	306.711	305.517	297.018	244.353	297.710	303.631	106.174	116.057	130.310	138.641	192.643	119.972	112.691	113.431	121.715	174.523	121.023	115.604	48.000
73.000	313.538	303.917	289.092	279.829	226.496	299.238	306.687	305.612	297.281	244.568	297.734	303.631	106.054	116.009	130.334	138.761	192.786	119.829	112.548	113.574	121.691	174.643	120.880	115.508	50.030
74.000	314.087	303.607	289.283	280.569	226.567	299.501	307.093	305.493	297.233	244.210	298.021	303.846	106.054	115.962	130.310	138.689	192.834	119.996	112.381	113.431	121.524	174.738	121.095	115.675	38.299
75.000	313.849	303.941	289.307	280.593	226.114	299.047	306.854	305.278	297.328	244.138	297.639	303.416	106.150	115.890	130.190	138.809	192.715	119.805	112.405	113.360	121.285	174.929	121.095	115.675	28.102
76.000	313.682	303.679	288.877	280.187	226.496	299.716	307.164	305.398	297.495	244.329	297.806	303.679	106.006	116.105	130.214	138.856	192.858	119.925	112.357	113.479	121.071	174.690	120.951	115.556	34.464
77.000	313.777	303.488	289.474	280.354	226.185	299.095	307.212	305.684	297.615	244.091	297.663	303.249	105.792	116.129	130.357	138.761	192.930	119.662	112.309	113.455	121.214	174.810	120.999	115.508	48.632
78.000	313.896	303.893	288.973	280.354	226.018	299.334	306.782	305.421	297.758	244.114	297.949	303.631	105.863	115.986	130.262	138.809	192.739	119.901	112.357	113.574	121.118	174.762	121.023	115.532	49.173
79.000	313.944	303.655	289.283	280.235	226.400	299.358	306.973	305.923	298.259	244.138	297.925	303.750	105.983	115.962	130.286	138.856	192.763	119.805	112.405	113.479	120.880	174.786	120.975	115.604	36.765
80.000	313.562	303.559	289.426	280.211	226.018	299.190	306.973	305.541	297.782	244.114	297.663	303.941	105.983	116.153	130.262	138.904	192.906	119.925	112.548	113.527	120.808	174.834	120.832	115.484	28.057
81.000	313.491	303.774	289.235	279.996	226.209	299.190	306.806	305.469	298.068	244.305	298.307	303.870	105.959	116.009	130.381	138.952	192.882	119.805	112.357	113.407	120.760	174.690	120.927	115.556	36.630
82.000	313.658	303.631	288.901	279.996	226.090	299.214	307.212	305.732	298.259	244.472	297.854	303.703	105.815	116.105	130.381	138.832	192.810	119.686	112.214	113.431	120.832	174.810	120.856	115.580	49.444
83.000	313.968	303.416	289.355	279.805	226.353	299.262	307.260	305.827	298.140	244.114	297.686	304.156	105.983	116.057	130.357	138.976	193.001	119.877	112.333	113.407	120.665	174.810	120.904	115.532	48.722
84.000	314.159	304.084	289.402	279.996	226.424	299.453	307.403	305.636	298.403	243.900	297.424	303.392	106.174	115.962	130.286	138.856	192.977	119.853	112.214	113.383	120.641	174.738	120.832	115.604	35.863
85.000	313.467	304.156	289.617	280.044	226.257	299.310	306.973	305.469	298.450	244.258	297.734	303.440	106.102	116.105	130.357	138.689	193.001	119.710	112.261	113.646	120.641	174.834	120.951	115.532	28.193
86.000	314.278	303.464	289.307	279.829	226.329	299.668	307.809	305.708	298.235	244.138	297.567	303.703	106.221	116.057	130.310	138.856	193.001	119.805	112.381	113.407	120.498	174.714	120.784	115.389	38.029
87.000	313.514	303.703	289.546	280.044	225.947	299.310	307.164	305.469	298.235	243.876	297.758	303.512	105.696	116.129	130.357	138.928	192.930	119.686	112.214	113.550	120.354	174.881	120.808	115.413	50.436
88.000	313.705	303.583	288.996	280.163	225.899	299.310	307.355	305.636	298.450	244.067	298.092	303.464	105.911	116.057	130.429	138.976	192.977	119.638	112.070	113.503	120.474	175.072	120.927	115.365	47.368
89.000	313.562	303.607	289.426	280.235	226.353	299.763	307.451	305.398	298.403	243.900	297.997	303.822	106.054	115.986	130.310	139.047	193.073	119.805	112.237	113.503	120.163	174.929	120.880	115.293	33.607
