-----------------------------------------------------
BloodHound 307 VOC Analyser V2017.1
RoboScientific Ltd 
Espace North
Wisbech Road
Littleport
Cambridgeshire, UK
CB6 1RA 
-----------------------------------------------------
Date = 03/03/2021
Time = 12:53:18
Data is protected by RoboScientific Limited
-----------------------------------------------------
Name of the experiment = "5529P"
-----------------------------------------------------
Repeat No. = 2/4
-----------------------------------------------------
Experimental Time (in sec) and Flow Profile :
-----------------------------------------------------
Baseline = 2.00
Absorb = 4.00
Pause = 1.00
Desorb = 5.00
Flush = 18.00
Wait = 5.00
Higher Flow (V) = 4.00
Medium Flow (V) = 3.00
Low Flow (V) = 1.00
-----------------------------------------------------
Total Profile Time = 35 in sec
-----------------------------------------------------
Acquired data point per second = 4
--------------------------------------------------
Total data point stored  = 120
-----------------------------------------------------
Acquired sensor responses from 24 sensors
-----------------------------------------------------

Data Points	 Sen-1	 Sen-2	 Sen-3	 Sen-4	 Sen-5	 Sen-6	 Sen-7	 Sen-8	 Sen-9	 Sen-10	 Sen-11	 Sen-12	 Sen-13	 Sen-14	 Sen-15	 Sen-16	 Sen-17	 Sen-18	 Sen-19	 Sen-20	 Sen-21	 Sen-22	 Sen-23	 Sen-24	Humidity (%r.h.)
0.000	313.777	303.893	289.546	280.163	226.711	300.265	307.976	306.257	304.514	252.327	298.546	304.514	105.887	115.508	130.238	138.904	192.691	118.898	111.115	112.715	115.508	167.099	120.283	114.864	33.020
1.000	314.374	304.347	289.307	279.829	226.782	300.145	308.334	306.352	304.920	252.016	298.737	304.681	105.983	115.532	130.071	138.880	192.572	118.850	111.020	112.691	115.556	167.290	120.187	114.649	28.779
2.000	314.064	304.228	289.474	279.853	226.878	300.432	308.334	306.424	304.347	252.088	298.785	304.801	105.792	115.627	130.047	138.880	192.715	118.922	111.163	112.667	115.532	167.146	120.068	114.768	40.916
3.000	313.992	304.037	289.402	280.187	226.233	300.432	308.071	306.090	304.252	252.351	298.904	304.419	105.815	115.556	130.095	138.952	192.715	118.922	111.115	112.787	115.317	167.123	120.068	114.768	51.564
4.000	313.920	304.347	289.140	280.116	226.591	300.289	308.406	306.663	304.443	251.897	298.880	304.252	105.887	115.580	130.310	138.952	192.739	118.779	111.187	112.858	115.532	167.146	120.044	114.649	44.661
5.000	313.228	303.870	289.522	280.163	226.185	300.575	308.238	306.329	304.204	252.160	298.450	304.657	105.768	115.556	130.119	139.047	192.739	118.827	111.092	112.739	115.484	167.242	120.092	114.696	30.358
6.000	313.395	304.204	289.569	279.686	226.305	300.169	308.310	306.114	304.275	252.016	298.713	304.514	105.887	115.556	130.190	139.000	192.763	118.803	111.044	112.787	115.436	167.242	120.140	114.696	30.133
7.000	314.064	304.347	289.928	280.283	226.448	300.480	308.358	306.281	304.466	251.849	298.570	304.252	106.197	115.460	130.023	139.071	192.906	118.731	111.020	112.667	115.365	167.123	120.187	114.673	44.706
8.000	313.801	304.132	289.450	279.996	226.663	300.480	308.167	306.305	304.705	251.826	298.785	304.395	106.102	115.651	130.238	139.143	192.763	118.707	111.068	112.691	115.413	167.170	120.116	114.744	51.384
9.000	313.801	304.347	289.211	280.092	226.424	300.480	308.406	306.520	304.395	251.778	298.928	304.610	105.983	115.484	130.119	138.928	192.691	118.707	111.163	112.715	115.269	167.170	120.116	114.601	40.465
10.000	313.753	304.347	289.498	280.665	226.639	300.503	308.429	306.400	303.941	251.730	299.143	305.326	105.983	115.222	130.166	139.095	192.739	118.874	111.259	112.715	115.436	166.788	119.758	113.909	28.283
11.000	311.700	304.466	289.760	280.498	227.260	300.790	308.262	307.140	302.676	253.139	299.334	305.159	108.203	115.413	130.143	138.689	191.855	118.516	111.115	112.381	116.606	165.953	119.209	113.670	33.472
12.000	306.090	303.010	289.378	281.166	227.689	300.981	308.477	306.830	299.262	253.521	298.880	304.514	113.765	116.081	129.856	138.355	191.068	118.516	111.235	112.309	119.710	165.308	119.352	114.458	47.820
13.000	297.161	302.294	289.880	280.903	228.668	300.002	307.880	306.782	293.723	254.284	298.546	303.464	122.169	117.322	129.570	137.758	190.041	118.659	111.283	112.333	124.652	165.141	120.163	115.747	49.985
14.000	288.352	299.453	289.856	281.667	229.719	300.480	307.904	306.520	287.827	253.879	297.161	301.793	132.530	119.638	129.689	137.591	189.277	119.471	111.688	112.619	130.477	165.069	121.333	117.490	37.081
15.000	276.176	297.901	289.880	281.429	230.244	298.641	306.997	306.376	281.405	253.401	295.395	299.453	143.583	122.026	129.522	137.448	188.943	120.331	112.357	113.145	136.350	165.475	123.243	119.614	28.238
16.000	264.335	294.965	290.071	281.596	230.769	297.448	306.591	305.636	275.866	252.685	293.198	297.090	154.517	124.890	129.522	137.400	188.251	121.572	112.858	113.622	142.103	165.929	125.368	122.049	37.713
17.000	253.091	291.264	290.357	282.169	231.629	295.944	305.565	304.586	270.733	251.945	290.095	294.034	166.335	127.946	129.450	137.090	187.701	123.148	113.622	114.529	147.284	166.478	128.185	125.105	49.354
18.000	243.279	287.946	290.286	281.667	231.939	294.416	304.801	303.392	266.412	251.253	286.824	291.073	176.600	131.551	129.689	137.233	187.463	125.034	114.529	115.246	152.703	167.457	131.957	128.543	45.925
19.000	233.276	283.888	289.378	281.978	231.676	291.981	303.440	302.485	261.470	250.154	283.004	287.731	186.603	135.633	129.832	137.233	187.128	127.134	115.747	116.582	157.454	168.674	136.374	131.742	34.103
20.000	224.801	279.972	289.593	281.429	232.249	289.999	302.055	301.053	256.982	248.865	278.277	284.126	194.672	139.477	129.904	137.233	187.033	129.283	117.299	118.206	162.037	170.083	140.337	135.204	31.216
21.000	218.713	275.723	288.996	281.787	232.202	287.445	300.480	299.334	252.446	246.693	272.954	280.068	201.285	143.559	130.238	137.591	186.794	131.885	118.994	119.614	166.526	171.802	145.207	138.761	40.736
22.000	221.315	271.449	288.734	280.498	232.321	284.532	298.450	297.877	248.388	244.568	267.773	276.654	198.707	148.119	130.453	137.997	186.746	134.607	120.808	121.166	171.181	173.831	150.960	142.986	47.639
23.000	226.758	267.296	288.782	280.665	232.416	281.500	296.063	295.729	243.828	242.300	262.282	272.357	193.383	152.369	130.954	138.641	186.794	137.376	123.124	123.219	175.836	176.218	156.618	146.472	42.405
24.000	232.416	262.425	288.352	279.853	232.631	278.731	293.604	293.437	239.841	239.555	256.624	268.823	187.701	157.191	131.265	139.095	186.675	140.623	126.108	125.416	180.110	179.274	162.300	150.411	33.878
25.000	235.997	257.961	288.065	278.850	232.321	275.627	290.644	291.718	236.547	236.236	250.966	264.741	184.335	161.321	131.551	139.931	186.890	143.727	128.448	127.445	183.571	182.020	167.695	153.968	35.051
26.000	236.045	258.534	287.779	279.184	232.106	275.054	289.665	291.861	235.711	234.159	249.128	265.409	184.455	161.417	131.790	140.002	187.176	144.347	130.119	127.397	184.765	184.526	169.581	153.682	42.450
27.000	234.398	259.346	287.325	278.349	232.058	275.436	289.426	292.410	235.950	233.252	249.653	266.412	185.935	160.319	132.052	139.859	187.152	143.798	129.928	126.753	185.004	185.720	169.581	152.775	45.789
28.000	233.324	259.751	287.110	278.922	231.509	276.057	289.832	292.888	235.448	232.822	249.749	267.296	186.508	159.913	132.243	139.883	187.439	143.297	129.952	126.251	185.266	186.388	169.725	152.082	40.465
29.000	233.706	260.324	287.540	278.898	231.676	276.391	289.665	293.318	234.875	232.130	249.080	267.797	186.484	159.960	132.291	139.668	187.463	142.986	130.143	126.227	185.410	186.842	170.011	151.629	33.336
30.000	238.218	257.579	287.206	279.017	231.772	275.341	288.471	291.885	234.541	230.793	246.191	265.386	180.993	161.966	132.339	139.787	187.415	143.894	131.026	127.039	185.815	187.678	172.064	153.467	36.585
31.000	238.194	261.590	286.824	278.826	231.581	272.166	285.344	289.713	233.777	229.361	241.226	268.752	179.417	156.594	132.745	140.551	187.439	146.997	134.320	129.331	187.176	189.778	177.603	149.647	43.578
32.000	279.757	279.638	286.609	277.513	231.461	268.800	281.930	288.567	232.440	228.740	245.141	281.787	138.761	139.501	133.103	141.363	187.606	150.459	137.591	130.787	187.439	190.471	172.876	137.042	45.789
33.000	296.612	289.880	285.774	276.678	231.461	266.914	279.566	290.023	232.822	230.578	256.743	289.904	122.790	129.307	133.819	141.817	187.988	152.822	140.313	129.068	187.296	188.800	162.157	128.782	38.164
34.000	303.392	295.872	285.368	276.535	230.650	266.317	278.516	292.434	233.658	232.727	268.083	294.750	115.914	124.007	134.392	142.318	188.418	153.061	141.077	126.633	187.081	185.887	151.390	124.914	29.862
35.000	308.262	298.617	284.819	276.344	230.650	268.680	280.545	295.944	235.090	236.427	277.155	297.663	111.163	120.927	134.750	142.413	188.704	150.507	139.000	123.625	185.338	182.282	141.745	121.906	37.036
36.000	310.793	300.408	284.413	276.511	230.698	272.476	283.506	298.092	238.767	239.984	283.434	298.999	109.397	119.256	135.228	142.055	188.704	146.400	135.968	120.951	181.494	178.462	134.917	120.283	48.812
37.000	312.201	301.435	284.198	277.227	230.292	277.370	287.349	300.408	243.923	243.709	288.424	300.241	108.179	118.086	135.180	141.411	188.919	141.650	132.291	118.946	175.502	174.881	130.501	118.994	47.684
38.000	312.727	302.413	284.484	277.967	230.578	281.787	290.668	301.817	249.868	246.621	291.097	300.933	107.009	117.418	135.371	141.053	188.895	137.328	128.949	117.394	169.534	172.088	127.827	118.039	35.006
39.000	313.109	302.748	284.461	278.540	230.578	285.559	293.222	302.771	255.717	249.581	293.222	301.602	106.914	116.917	134.989	140.217	188.680	133.461	126.156	116.320	163.327	169.462	125.845	117.466	28.554
40.000	313.610	303.177	284.986	279.137	230.292	288.829	296.063	303.774	261.494	250.847	294.440	302.175	106.579	116.702	134.392	139.573	188.752	130.548	123.530	115.484	157.263	167.863	124.365	116.797	38.841
41.000	313.610	303.225	285.081	279.901	229.886	290.954	298.188	304.443	265.959	251.969	295.371	302.366	106.508	116.344	133.938	139.286	188.871	128.280	121.190	114.673	152.512	166.764	123.410	116.773	50.797
42.000	313.538	303.798	286.060	280.068	230.602	292.840	299.405	304.825	270.232	252.637	295.944	303.010	106.508	115.866	133.604	138.928	188.895	126.538	119.543	114.195	148.430	166.191	122.670	116.224	46.285
43.000	313.610	303.774	286.370	280.474	230.077	294.034	301.148	305.278	273.383	252.971	296.517	303.106	106.627	115.866	133.413	138.737	189.134	125.248	118.230	113.956	144.944	165.642	122.049	115.962	32.253
44.000	313.801	303.703	286.896	280.521	229.743	294.774	302.222	305.612	276.176	253.783	297.281	303.225	106.460	115.699	132.792	138.641	189.301	124.365	117.227	113.550	141.984	165.427	121.667	115.604	29.276
45.000	314.040	303.893	287.445	280.450	229.766	295.442	303.082	306.138	278.755	253.497	297.137	303.703	106.293	115.699	132.363	138.283	189.492	123.601	116.487	113.383	139.095	165.380	121.357	115.532	41.819
46.000	313.037	303.679	287.421	280.736	229.193	296.182	303.440	305.660	280.903	253.449	297.686	304.252	106.245	115.580	132.100	138.236	189.683	123.028	115.484	113.192	136.588	165.308	121.214	115.436	51.610
47.000	314.111	304.013	287.445	280.259	229.122	296.946	304.538	306.138	283.195	253.879	297.925	303.941	105.959	115.604	131.861	138.283	189.898	122.431	115.078	112.978	134.511	165.404	121.023	115.389	42.766
48.000	313.968	304.228	288.137	280.784	228.716	297.281	304.753	306.114	285.201	253.425	297.448	303.941	106.006	115.556	131.814	138.307	189.993	122.002	114.744	113.025	132.482	165.380	120.951	115.102	29.456
49.000	313.562	304.013	287.755	280.856	228.644	297.472	304.825	306.018	287.039	253.759	298.164	304.275	106.078	115.556	131.384	138.355	190.137	121.787	114.529	112.906	130.716	165.213	120.617	114.816	31.531
50.000	313.944	304.204	288.018	281.047	228.764	297.376	305.278	306.114	288.018	253.449	297.997	303.893	106.078	115.532	131.265	138.140	190.471	121.405	114.004	113.025	129.307	165.284	120.641	115.055	45.744
51.000	314.064	304.395	288.662	280.927	228.573	298.045	305.684	306.018	289.808	253.425	298.379	304.037	106.078	115.460	130.883	138.260	190.709	121.095	113.861	112.954	128.066	165.427	120.569	115.102	50.978
52.000	313.347	304.156	288.734	280.617	228.501	298.498	305.493	306.042	290.691	253.091	298.355	304.228	106.078	115.436	131.002	138.260	190.829	120.856	113.455	112.834	126.753	165.475	120.617	115.174	39.788
53.000	313.658	303.893	288.686	280.832	227.976	298.498	306.090	305.970	292.363	253.234	298.116	304.156	105.887	115.484	130.978	138.522	191.068	120.689	113.312	112.787	125.941	165.571	120.545	115.031	28.148
54.000	313.968	304.371	288.686	280.593	228.239	298.737	306.281	306.161	292.864	253.067	298.212	304.037	105.792	115.532	130.859	138.403	191.163	120.522	113.121	112.787	125.177	165.690	120.593	115.007	34.239
55.000	313.729	303.941	288.758	280.521	228.071	298.952	306.400	306.209	293.914	253.473	298.164	303.941	105.863	115.604	130.620	138.355	191.187	120.474	113.049	112.834	124.628	165.618	120.522	114.935	48.767
56.000	314.087	304.132	289.378	280.330	227.857	298.856	306.687	306.138	294.750	253.377	297.997	304.347	105.792	115.580	130.572	138.403	191.235	120.307	112.810	112.906	123.912	165.809	120.474	114.887	48.993
57.000	314.517	303.870	289.044	280.259	227.785	298.808	306.878	306.448	295.371	253.521	298.546	303.989	105.863	115.460	130.501	138.283	191.450	120.331	112.715	112.715	123.482	165.905	120.402	115.007	35.863
58.000	313.777	304.204	289.020	280.975	227.785	299.214	306.663	306.161	295.633	253.592	298.498	304.108	105.672	115.651	130.596	138.451	191.593	119.996	112.763	112.858	122.933	165.929	120.331	114.959	28.012
59.000	313.729	304.228	288.901	280.426	227.761	299.381	307.045	306.114	296.087	253.043	298.498	304.466	106.126	115.460	130.453	138.474	191.545	119.972	112.619	112.858	122.455	165.929	120.378	114.840	37.668
60.000	313.538	303.989	289.211	280.307	227.952	299.740	306.782	305.970	296.564	252.637	298.092	304.275	105.768	115.604	130.357	138.474	191.593	119.972	112.428	112.787	122.002	165.929	120.426	114.816	50.707
61.000	313.538	303.846	288.758	280.641	227.188	299.692	307.212	306.472	297.137	253.067	298.355	304.610	105.863	115.484	130.429	138.498	191.688	119.949	112.452	112.787	121.620	166.000	120.307	114.864	46.737
62.000	313.992	304.228	289.259	280.283	227.355	299.310	306.997	306.257	297.639	252.948	298.045	304.180	105.887	115.484	130.429	138.618	191.736	119.853	112.428	112.858	121.333	166.024	120.354	114.911	32.389
63.000	314.326	304.180	289.140	280.665	227.618	299.405	307.140	306.257	298.068	252.995	298.641	304.275	106.006	115.580	130.286	138.522	191.664	119.710	112.214	112.715	121.071	166.215	120.402	114.983	28.869
64.000	313.849	304.013	289.211	280.569	226.973	299.549	307.331	306.520	298.212	252.613	298.212	304.180	105.863	115.604	130.381	138.451	191.808	119.543	112.190	112.906	120.689	166.263	120.378	114.816	41.097
65.000	313.610	304.395	289.426	280.808	227.188	299.931	307.164	306.114	298.450	252.709	298.570	304.180	106.006	115.460	130.286	138.546	191.808	119.590	112.261	112.858	120.617	166.072	120.354	114.696	51.655
66.000	313.896	304.204	289.307	280.354	227.021	299.525	307.618	306.424	298.546	252.971	298.474	304.586	105.983	115.580	130.238	138.641	192.094	119.662	112.142	112.739	120.068	166.168	120.307	114.983	43.533
67.000	314.231	304.156	289.235	280.259	226.830	299.596	307.737	306.496	299.190	252.709	298.188	304.562	105.720	115.508	130.143	138.665	191.975	119.590	111.951	112.715	119.829	166.215	120.235	114.816	29.727
68.000	313.419	304.156	288.805	280.187	227.188	299.763	307.093	306.090	299.572	252.948	298.188	304.466	105.887	115.365	130.238	138.498	192.023	119.519	111.927	112.763	119.829	166.263	120.354	114.816	30.764
69.000	313.992	304.252	289.665	280.402	226.926	299.859	307.689	306.376	299.716	252.733	298.188	304.013	105.768	115.604	130.357	138.689	192.094	119.471	111.879	112.834	119.519	166.287	120.331	114.768	44.706
70.000	313.753	304.037	289.498	280.402	227.522	300.121	307.522	306.376	299.692	252.637	298.355	304.538	106.221	115.532	130.310	138.522	192.094	119.376	111.951	112.810	119.447	166.359	120.331	114.816	51.384
71.000	313.538	304.037	289.426	280.689	227.045	300.002	307.546	306.114	299.668	252.112	298.474	304.514	105.983	115.580	130.214	138.713	192.237	119.376	111.951	112.834	119.232	166.335	120.307	114.864	40.961
72.000	314.302	303.726	289.211	279.972	226.973	300.265	307.928	306.472	300.432	253.139	298.474	304.443	105.959	115.436	130.190	138.880	192.214	119.399	111.855	112.810	119.065	166.215	120.187	114.911	28.463
73.000	313.634	304.252	289.928	280.521	226.782	299.883	307.522	306.209	300.074	252.709	298.259	304.180	105.744	115.508	130.262	138.761	192.166	119.471	111.784	112.763	118.922	166.478	120.283	114.768	32.885
74.000	313.729	303.798	289.617	280.211	226.878	299.620	307.570	306.352	300.336	252.184	298.212	304.490	106.006	115.460	130.525	138.737	192.118	119.232	111.736	112.810	118.827	166.502	120.331	114.816	46.962
75.000	313.634	304.037	289.187	280.378	226.806	299.668	307.355	306.209	300.480	252.733	298.355	304.729	106.126	115.532	130.429	138.689	192.428	119.328	111.784	112.643	118.636	166.430	120.259	114.864	50.346
76.000	314.446	304.323	289.355	280.378	226.997	299.931	307.928	306.496	300.575	252.160	298.307	304.586	105.983	115.771	130.405	138.689	192.309	119.209	111.712	112.810	118.659	166.430	120.307	114.911	38.344
77.000	313.228	304.084	289.283	280.354	226.830	300.026	307.618	305.994	300.957	252.542	298.403	304.252	105.839	115.627	130.286	138.880	192.237	119.232	111.617	112.667	118.445	166.430	120.331	114.840	27.877
78.000	313.944	304.132	289.235	279.686	226.615	299.883	307.427	306.161	301.649	252.852	298.713	304.705	106.006	115.508	130.190	138.737	192.428	119.209	111.617	112.715	118.230	166.335	120.378	114.816	35.773
79.000	313.562	303.893	289.546	280.187	227.069	300.265	307.880	306.329	300.957	252.542	298.474	304.371	106.006	115.532	130.214	138.570	192.309	119.161	111.641	112.787	118.277	166.550	120.307	114.887	49.399
80.000	313.419	304.466	289.522	279.829	226.591	299.883	307.307	306.042	301.029	252.184	298.737	304.825	105.792	115.580	130.143	138.880	192.428	119.232	111.784	112.858	118.015	166.430	120.331	114.816	48.496
81.000	314.064	304.013	289.737	280.378	226.758	300.289	307.785	306.448	301.387	252.231	298.164	304.371	106.006	115.580	130.095	138.785	192.548	119.256	111.664	112.691	117.872	166.573	120.259	114.792	35.322
82.000	313.491	303.941	289.546	280.354	226.902	299.859	307.809	306.114	301.387	252.566	298.474	304.634	105.959	115.484	130.262	138.785	192.381	119.089	111.474	112.715	118.039	166.764	120.331	114.649	28.193
83.000	313.610	303.941	289.331	280.044	226.591	299.763	307.713	306.257	301.721	252.303	298.856	304.395	105.863	115.460	130.238	138.832	192.476	119.113	111.474	112.643	117.633	166.645	120.331	114.864	37.487
84.000	313.419	304.013	289.164	280.163	226.591	300.241	307.737	306.138	301.673	252.279	298.068	304.514	105.935	115.556	130.262	138.832	192.428	119.161	111.497	112.643	117.657	166.502	120.187	114.744	50.256
85.000	314.040	303.655	289.331	280.498	226.830	300.312	308.047	306.138	301.769	252.589	298.450	304.347	105.983	115.532	130.262	138.928	192.452	119.113	111.569	112.906	117.776	166.645	120.211	114.768	47.594
86.000	313.801	303.965	289.474	280.426	226.663	299.978	308.024	306.520	302.270	252.398	298.331	304.681	105.935	115.365	130.286	138.785	192.548	119.137	111.450	112.691	117.513	166.693	120.259	114.816	33.697
87.000	313.849	303.703	289.140	280.354	226.830	300.265	307.880	306.257	302.294	252.398	298.832	304.323	106.030	115.627	130.405	138.928	192.548	119.041	111.545	112.739	117.513	166.645	120.283	114.696	28.463
88.000	314.135	304.347	289.450	279.781	227.045	300.026	307.880	306.878	302.127	251.921	298.426	304.705	105.863	115.580	130.381	139.023	192.548	119.089	111.545	112.667	117.227	166.669	120.283	114.768	40.285
89.000	314.040	304.061	288.996	279.877	227.021	300.360	308.167	306.209	302.270	252.494	298.474	304.395	105.815	115.508	130.190	138.713	192.452	119.113	111.497	112.810	117.322	166.741	120.235	114.673	51.474
