-----------------------------------------------------
BloodHound 307 VOC Analyser V2017.1
RoboScientific Ltd 
Espace North
Wisbech Road
Littleport
Cambridgeshire, UK
CB6 1RA 
-----------------------------------------------------
Date = 03/03/2021
Time = 12:07:16
Data is protected by RoboScientific Limited
-----------------------------------------------------
Name of the experiment = "5633P"
-----------------------------------------------------
Repeat No. = 4/5
-----------------------------------------------------
Experimental Time (in sec) and Flow Profile :
-----------------------------------------------------
Baseline = 2.00
Absorb = 4.00
Pause = 1.00
Desorb = 5.00
Flush = 18.00
Wait = 5.00
Higher Flow (V) = 4.00
Medium Flow (V) = 3.00
Low Flow (V) = 1.00
-----------------------------------------------------
Total Profile Time = 35 in sec
-----------------------------------------------------
Acquired data point per second = 4
--------------------------------------------------
Total data point stored  = 120
-----------------------------------------------------
Acquired sensor responses from 24 sensors
-----------------------------------------------------

Data Points	 Sen-1	 Sen-2	 Sen-3	 Sen-4	 Sen-5	 Sen-6	 Sen-7	 Sen-8	 Sen-9	 Sen-10	 Sen-11	 Sen-12	 Sen-13	 Sen-14	 Sen-15	 Sen-16	 Sen-17	 Sen-18	 Sen-19	 Sen-20	 Sen-21	 Sen-22	 Sen-23	 Sen-24	Humidity (%r.h.)
0.000	313.538	302.962	289.164	280.139	225.756	298.928	306.830	304.610	299.262	234.875	297.161	302.604	106.197	116.917	129.975	138.546	193.192	120.187	112.452	114.100	119.781	184.335	121.715	116.630	47.504
1.000	313.228	302.724	289.187	280.378	226.018	299.143	306.567	304.490	299.381	234.828	297.519	302.891	106.126	116.964	130.238	138.427	193.168	120.092	112.452	114.338	119.781	184.359	121.596	116.535	49.940
2.000	313.634	302.819	289.689	280.378	226.162	298.713	306.973	304.562	299.190	234.828	297.376	303.106	106.030	117.012	130.214	138.427	193.216	119.996	112.572	114.219	119.662	184.359	121.667	116.559	37.623
3.000	314.087	302.389	289.140	280.402	225.875	299.525	307.475	304.992	299.596	234.660	296.827	302.628	106.269	116.797	130.310	138.641	193.240	120.116	112.500	114.338	119.877	184.407	121.524	116.487	28.102
4.000	313.514	302.389	289.164	280.330	226.209	299.310	307.212	305.421	299.501	234.589	296.994	302.437	106.078	116.988	130.310	138.379	193.049	120.283	112.691	114.434	119.853	184.359	121.453	116.535	36.765
5.000	313.729	302.724	289.617	280.139	225.636	299.214	307.260	304.944	299.119	234.302	296.922	302.795	106.150	117.084	130.119	138.403	193.216	120.092	112.596	114.362	119.877	184.288	121.500	116.487	49.895
6.000	313.968	302.652	289.140	280.307	225.851	299.119	307.021	305.135	299.429	234.613	297.042	302.509	106.221	116.869	130.286	138.522	193.216	119.996	112.476	114.219	119.805	184.311	121.620	116.606	48.090
7.000	314.183	302.795	289.307	280.235	226.185	299.190	307.212	304.777	299.167	234.732	297.376	302.652	106.269	116.988	130.405	138.474	193.145	120.116	112.500	114.243	119.781	184.502	121.620	116.630	34.509
8.000	314.135	302.676	289.641	280.593	226.114	299.334	306.973	304.729	299.572	234.684	297.018	302.628	106.150	116.941	130.262	138.379	193.216	120.116	112.452	114.362	119.972	184.574	121.620	116.511	28.554
9.000	313.777	303.010	289.760	280.283	225.971	299.596	306.830	304.825	299.620	234.565	296.922	302.461	106.269	116.893	130.357	138.474	193.264	120.187	112.476	114.362	119.758	184.288	121.572	116.487	38.886
10.000	313.276	302.986	289.164	280.712	225.827	298.713	306.663	304.848	299.572	235.042	296.994	303.058	106.221	116.702	130.238	138.379	193.168	119.996	112.333	114.123	119.781	183.929	121.214	115.771	50.797
11.000	311.318	303.082	289.784	280.808	226.782	299.716	306.902	305.254	298.355	236.069	297.830	303.679	108.609	116.630	130.166	138.188	192.118	119.614	112.309	113.694	120.736	182.712	120.665	115.460	45.564
12.000	306.949	302.222	289.904	281.238	227.976	299.668	306.830	305.445	295.944	237.048	298.403	303.464	112.787	117.084	130.023	137.710	191.211	119.590	112.524	113.694	122.981	181.972	120.593	115.890	31.080
13.000	299.405	301.315	289.880	281.357	228.668	299.381	306.902	305.421	290.954	237.358	297.376	301.888	119.972	118.468	129.880	137.376	190.256	119.376	112.572	113.694	126.585	181.542	121.190	116.964	30.043
14.000	289.689	299.143	289.904	282.049	229.766	298.904	306.305	305.421	285.917	237.310	296.254	300.647	130.095	120.665	129.761	137.042	189.492	119.996	113.025	114.028	131.838	181.566	122.431	118.540	43.714
15.000	279.925	296.899	289.975	282.288	230.220	298.116	305.970	304.992	280.689	237.382	294.702	298.307	140.146	122.813	129.331	136.732	188.943	120.927	113.407	114.601	137.305	181.757	124.079	120.522	50.707
16.000	268.752	294.272	290.357	282.646	230.841	296.899	305.517	304.395	275.054	236.356	292.363	295.991	151.318	125.630	129.307	136.541	188.227	122.026	113.837	114.911	142.366	182.330	126.514	123.267	41.187
17.000	257.627	290.906	290.381	282.813	231.509	295.418	304.562	303.321	270.184	236.165	289.641	293.771	162.372	128.639	129.450	136.517	187.725	123.697	114.792	115.651	148.024	182.998	129.522	126.060	29.727
18.000	246.908	287.898	290.142	282.193	231.294	293.341	303.201	302.413	264.789	235.544	286.275	290.286	171.802	131.861	129.426	136.397	187.343	125.487	115.818	116.654	152.631	183.738	132.363	128.734	33.517
19.000	237.334	284.174	290.214	282.479	232.154	291.288	302.031	301.220	259.990	234.302	282.216	286.824	181.900	135.848	129.689	136.326	187.009	127.493	117.108	117.800	158.051	184.932	136.588	131.957	45.834
20.000	228.979	279.925	289.928	282.073	231.963	289.211	300.480	299.644	255.669	232.870	277.776	283.959	191.044	139.859	129.928	136.755	186.961	130.095	118.779	119.113	163.064	186.245	140.933	135.132	47.820
21.000	221.196	276.057	289.450	282.025	232.130	286.824	298.737	298.331	250.871	231.438	273.264	280.378	198.922	143.822	129.928	136.851	186.484	132.554	120.713	120.665	168.245	187.749	146.066	138.952	38.164
22.000	218.952	271.449	289.355	281.572	232.703	284.079	296.660	296.827	245.905	229.575	267.677	276.367	201.453	148.477	130.334	137.519	186.532	135.395	122.742	122.264	172.900	189.396	151.509	142.557	31.577
23.000	223.153	266.914	288.304	280.975	232.846	280.665	294.177	294.941	241.870	227.570	262.067	272.858	196.558	152.560	130.692	137.997	186.532	137.901	124.938	124.007	177.388	191.115	156.929	146.496	37.713
24.000	228.501	262.139	288.519	279.948	232.393	277.728	291.527	293.055	238.074	225.445	256.170	268.752	191.378	157.430	131.169	138.570	186.555	141.411	128.042	126.156	181.614	193.336	162.539	150.435	45.564
25.000	232.584	258.128	287.898	279.566	232.655	274.553	289.068	291.241	234.660	224.061	250.990	265.362	187.248	161.608	131.599	139.334	186.651	144.872	131.145	128.233	184.884	195.365	168.125	154.016	44.210
26.000	232.225	258.701	287.803	279.232	232.202	274.099	287.660	291.384	233.634	222.509	249.462	265.959	187.773	160.868	131.766	139.525	186.961	145.207	132.148	127.994	186.126	196.654	169.581	153.562	36.585
27.000	230.626	260.277	287.779	279.543	232.034	274.816	288.233	291.790	233.658	222.031	249.701	266.675	189.707	159.626	131.909	139.286	187.105	144.371	131.885	127.397	185.983	196.940	169.080	152.440	33.697
28.000	229.528	261.184	287.110	279.972	232.082	275.580	288.328	292.458	233.849	222.008	250.107	267.415	190.518	158.886	131.909	139.238	187.272	143.703	131.551	126.681	186.030	197.394	168.841	151.557	40.285
29.000	229.098	261.805	287.636	279.686	231.796	275.627	287.827	292.673	233.706	221.817	249.987	268.250	191.354	158.337	131.981	139.143	187.319	143.273	131.527	126.371	185.935	197.513	168.770	151.127	46.195
30.000	234.517	259.083	287.636	279.662	231.915	275.102	286.848	292.076	232.965	220.695	247.839	265.959	185.219	160.653	132.076	139.382	187.272	144.276	132.530	127.111	186.818	198.325	171.181	152.918	42.541
31.000	252.685	267.319	287.063	279.041	232.130	271.831	283.768	289.904	232.011	219.740	242.372	272.404	169.390	153.324	132.458	139.835	187.248	147.499	135.920	129.665	187.463	199.567	176.672	147.546	35.231
32.000	287.325	284.270	287.039	278.134	232.178	268.465	279.877	288.829	231.700	219.859	250.083	284.890	133.437	135.442	133.103	140.814	187.367	150.698	139.382	130.453	187.582	199.399	169.009	134.798	34.148
33.000	299.429	292.768	286.012	277.084	231.270	266.412	277.824	291.026	231.796	221.697	262.425	291.551	120.426	127.373	133.461	141.602	187.558	152.584	141.769	128.185	187.773	197.537	156.594	127.684	43.262
34.000	305.326	296.517	285.917	277.060	231.175	268.179	278.062	293.532	232.655	223.440	273.073	295.108	114.100	123.004	133.962	141.769	187.869	151.103	141.411	125.296	186.937	195.126	144.968	123.959	49.534
35.000	309.098	298.665	285.153	276.988	231.342	271.449	281.381	296.708	235.663	226.854	281.309	297.090	110.495	120.665	134.225	141.387	187.988	147.403	138.283	122.336	183.476	192.142	137.137	122.073	41.864
36.000	311.175	299.907	285.463	277.704	230.578	276.296	284.866	298.952	241.393	229.599	287.063	298.546	108.418	119.471	134.511	141.053	188.203	142.509	134.201	120.259	178.439	189.516	132.124	120.522	29.997
37.000	312.082	300.981	285.224	278.731	231.103	281.333	288.734	300.312	247.170	231.867	289.999	299.572	107.582	118.827	134.344	140.217	188.322	137.806	130.716	118.612	171.993	187.176	128.662	119.734	33.020
38.000	312.918	301.435	284.962	279.447	230.817	285.177	291.933	302.127	252.852	233.371	292.267	300.026	107.415	118.301	134.153	139.692	188.346	133.867	127.493	117.442	164.878	185.219	126.681	119.041	46.511
39.000	313.085	301.984	286.084	279.996	230.602	288.495	295.132	302.748	259.202	235.019	293.174	300.790	106.699	117.919	133.962	139.143	188.346	130.525	124.723	116.582	158.862	183.906	125.439	118.397	50.256
40.000	313.156	302.127	285.988	280.283	230.411	291.002	297.161	303.488	263.762	236.427	294.249	301.029	106.627	117.418	133.580	138.236	188.680	128.209	122.575	116.057	153.873	183.118	124.365	118.039	39.202
41.000	313.228	302.222	286.681	280.736	230.268	292.673	298.832	303.559	268.155	236.857	295.395	301.530	106.532	117.442	133.413	138.236	188.991	126.729	120.784	115.436	149.623	182.497	123.673	117.872	28.328
42.000	312.846	302.175	287.278	281.261	229.957	293.747	299.954	303.941	271.593	236.881	295.204	302.055	106.412	117.203	132.625	137.925	189.062	125.583	119.399	115.222	146.305	182.043	123.171	117.466	35.592
43.000	313.180	302.652	287.206	280.927	230.220	295.227	301.411	304.061	274.434	237.430	295.991	301.673	106.627	117.299	132.291	137.782	189.373	124.628	118.182	114.840	143.321	181.924	123.028	117.537	48.496
44.000	313.324	302.628	287.970	281.070	229.671	295.466	302.151	304.275	276.678	237.430	296.206	302.127	106.341	117.036	131.981	137.734	189.587	123.840	117.442	114.792	140.551	181.733	122.694	117.155	48.451
45.000	313.443	302.748	287.803	281.572	229.241	296.039	302.580	304.299	279.137	237.096	296.660	301.912	106.221	116.964	131.718	137.758	189.683	123.219	116.869	114.744	138.379	181.852	122.503	117.060	35.006
46.000	313.371	302.724	288.638	281.524	228.931	296.326	302.795	304.323	281.190	237.478	296.636	302.366	106.197	116.964	131.479	137.543	189.946	122.790	116.391	114.673	136.254	181.805	122.240	117.012	28.509
47.000	313.562	302.795	288.447	281.572	228.477	296.660	303.655	304.514	282.789	237.406	296.731	302.461	106.365	117.012	131.336	137.448	190.280	122.479	116.224	114.649	134.702	181.924	122.193	116.750	39.021
48.000	313.658	302.843	288.877	281.357	228.788	296.875	303.846	304.538	284.365	237.287	296.612	302.628	106.460	116.869	131.026	137.710	190.542	122.288	115.675	114.458	132.912	181.852	122.193	117.012	50.888
49.000	313.873	303.034	288.424	281.500	228.501	297.304	303.917	304.729	285.654	237.096	296.899	302.962	106.054	117.084	131.026	137.687	190.805	121.978	115.389	114.410	131.838	181.948	122.026	116.153	45.383
50.000	313.204	303.106	288.495	281.070	228.262	297.376	304.252	304.872	286.943	237.143	297.137	302.604	106.221	117.084	130.883	137.687	190.948	121.811	115.007	114.434	130.811	182.067	122.026	116.869	32.118
51.000	313.491	302.986	288.949	281.285	228.000	297.519	304.825	304.825	288.471	236.785	297.185	302.413	106.150	116.964	130.739	137.615	191.068	121.453	115.007	114.314	129.880	182.163	122.121	116.845	29.727
52.000	313.491	302.485	288.877	280.760	228.048	297.997	304.705	304.920	288.925	237.000	297.376	302.366	106.006	116.988	130.739	137.830	191.354	121.357	114.696	114.505	128.997	182.139	121.787	116.773	41.954
53.000	313.037	302.986	289.355	281.429	227.976	297.806	304.801	304.753	289.546	236.523	296.851	302.366	106.388	116.893	130.548	137.878	191.450	121.333	114.529	114.291	128.209	182.282	122.121	116.797	51.429
54.000	313.467	302.891	288.925	281.118	227.689	298.331	304.968	304.777	290.787	236.690	296.708	302.485	106.269	116.988	130.501	137.901	191.569	121.285	114.553	114.314	127.636	182.425	121.858	116.845	43.262
55.000	313.443	302.771	288.949	281.476	227.713	297.877	304.944	304.944	291.455	236.952	297.233	302.604	106.293	116.988	130.501	137.949	191.688	120.927	114.291	114.482	127.230	182.330	122.049	116.797	29.591
56.000	313.729	303.082	289.116	281.214	227.355	298.259	305.326	304.634	291.479	236.785	297.281	302.366	106.006	116.797	130.429	137.949	191.617	120.927	114.147	114.338	126.585	182.664	122.002	116.773	31.802
57.000	313.705	302.819	288.925	280.736	227.737	298.713	305.374	304.705	292.076	236.857	296.994	302.795	106.341	116.773	130.405	137.973	191.999	120.951	114.052	114.291	126.299	182.688	121.811	116.797	45.473
58.000	313.061	302.652	289.044	280.474	227.140	298.212	305.207	304.896	292.721	236.690	297.090	302.676	106.174	117.060	130.453	137.901	191.903	120.832	114.004	114.291	125.869	182.712	121.811	116.797	51.203
59.000	313.682	302.986	289.140	281.142	227.284	298.474	305.302	304.705	293.103	235.974	296.899	302.533	105.983	116.964	130.381	137.949	192.023	120.784	113.789	114.291	125.559	182.807	121.763	116.750	40.781
60.000	314.111	302.222	288.996	281.357	227.618	298.904	305.756	304.920	293.270	236.284	296.970	302.485	105.911	116.917	130.381	138.069	192.094	120.689	113.741	114.267	125.225	182.855	121.667	116.678	28.463
61.000	313.371	302.652	289.355	280.784	226.639	298.355	305.278	304.562	293.413	236.165	297.090	302.700	106.245	116.869	130.334	138.069	192.285	120.713	113.598	114.219	124.819	182.855	121.882	116.797	34.103
62.000	313.610	302.724	289.259	281.047	226.758	298.665	305.732	304.729	294.129	235.997	297.328	302.795	106.078	116.821	130.310	138.164	192.309	120.593	113.503	114.314	124.819	183.094	121.811	116.702	47.639
63.000	314.111	302.962	288.996	280.903	227.045	298.546	306.233	305.039	294.440	236.236	296.588	302.628	106.174	116.917	130.357	138.116	192.381	120.545	113.574	114.338	124.437	183.022	121.644	116.726	49.715
64.000	313.395	303.058	289.020	280.665	226.544	298.498	306.257	305.111	294.822	236.284	297.304	302.676	106.293	116.893	130.357	138.212	192.428	120.617	113.407	114.386	124.270	183.142	121.835	116.654	36.720
65.000	313.419	303.010	289.737	281.238	226.735	298.689	305.875	304.443	294.368	235.615	296.612	302.437	106.341	117.012	130.381	137.973	192.333	120.569	113.718	114.625	124.150	183.189	121.763	116.582	28.238
66.000	313.896	302.939	289.116	280.712	226.735	298.665	306.352	304.801	295.275	235.711	296.564	302.198	106.030	117.012	130.405	138.188	192.476	120.331	113.455	114.410	123.888	183.189	121.715	116.582	37.984
67.000	313.443	303.130	289.593	281.476	227.140	298.379	305.732	304.729	295.418	235.305	297.090	302.628	106.078	116.917	130.238	138.140	192.476	120.545	113.383	114.314	123.673	183.261	121.858	116.630	50.707
68.000	313.658	303.201	289.402	281.070	226.639	298.379	305.780	304.777	295.633	235.926	297.113	302.485	105.815	116.964	130.310	138.307	192.715	120.474	113.336	114.314	123.553	183.261	121.691	116.678	46.466
69.000	313.920	302.986	289.235	280.641	226.615	298.761	305.875	304.753	296.015	236.379	297.257	302.389	106.436	116.893	130.214	138.236	192.643	120.498	113.240	114.386	123.482	183.261	121.787	116.678	32.389
70.000	313.944	302.533	289.044	280.474	226.639	298.904	306.305	304.896	295.968	235.711	297.352	302.795	106.078	116.964	130.405	138.092	192.643	120.426	113.407	114.338	123.267	183.356	121.739	116.535	29.636
71.000	313.944	302.867	288.949	280.569	226.257	299.047	306.352	304.681	295.800	235.854	297.567	303.010	106.269	116.845	130.286	138.236	192.691	120.283	113.240	114.362	123.243	183.380	121.811	116.654	42.721
72.000	313.419	303.249	289.331	281.261	226.400	298.665	306.042	304.610	296.063	235.424	296.899	302.795	106.341	116.869	130.119	138.451	192.619	120.402	113.145	114.291	122.885	183.404	121.715	116.630	51.429
73.000	313.491	302.724	289.378	280.474	226.448	299.095	306.233	304.490	295.848	235.830	297.137	302.676	106.460	116.964	130.310	138.283	192.667	120.378	113.145	114.267	122.790	183.452	121.835	116.630	42.631
74.000	313.300	303.201	289.378	280.569	226.257	298.450	305.947	304.347	295.920	235.639	297.591	303.058	106.221	116.797	130.310	138.236	192.810	120.331	113.145	114.386	122.813	183.380	121.787	116.678	29.321
75.000	313.180	303.416	289.378	280.474	225.994	298.737	306.114	304.514	296.182	235.138	296.731	302.676	106.197	116.869	130.166	138.140	192.739	120.402	113.169	114.386	122.694	183.452	121.763	116.559	32.299
76.000	314.087	302.891	289.617	280.641	226.520	298.832	306.424	304.825	296.540	235.663	296.922	302.604	106.150	116.773	130.381	138.260	192.739	120.331	112.978	114.219	122.360	183.428	121.882	116.606	46.511
77.000	313.443	302.795	289.259	280.521	226.472	299.214	306.161	304.777	296.660	235.783	296.994	302.986	106.269	116.845	130.262	138.403	192.691	120.331	113.073	114.147	122.312	183.428	121.858	116.654	50.391
78.000	313.658	302.962	289.116	280.856	226.353	298.832	306.233	304.825	296.827	235.305	296.708	302.509	106.126	116.893	130.262	138.212	192.858	120.259	113.145	114.362	122.312	183.595	121.858	116.606	39.202
79.000	313.610	302.843	289.211	280.617	226.424	298.617	306.138	304.466	296.612	235.878	297.400	303.058	106.269	116.941	130.190	138.283	192.858	120.235	112.978	114.243	122.145	183.595	121.715	116.654	28.238
80.000	313.514	302.891	289.211	280.474	226.209	298.808	306.114	304.514	297.113	235.783	296.946	302.580	106.293	116.941	130.262	138.140	192.786	120.187	113.001	114.243	122.145	183.595	121.763	116.654	34.554
81.000	313.658	303.464	289.402	280.879	226.305	299.095	306.615	304.610	296.731	235.448	297.042	302.366	106.054	116.917	130.262	138.379	192.930	120.259	113.001	114.362	122.264	183.619	121.811	116.535	48.045
82.000	313.252	302.867	289.211	280.235	226.162	298.856	306.400	304.681	297.042	235.759	297.281	302.843	106.317	116.869	130.262	138.283	192.834	120.259	112.834	114.458	122.121	183.571	121.691	116.535	49.534
83.000	313.491	302.485	289.020	280.927	225.947	298.928	306.305	304.801	297.472	235.663	297.018	302.580	106.388	116.869	130.238	138.379	192.882	120.378	112.954	114.386	121.954	183.571	121.667	116.511	36.314
84.000	313.538	302.771	289.689	280.712	226.400	298.976	306.352	304.538	296.899	235.592	297.328	302.748	105.983	117.179	130.310	138.403	193.025	120.283	112.954	114.147	121.858	183.524	121.858	116.654	28.148
85.000	313.013	303.344	289.856	280.951	226.162	298.641	306.352	304.419	297.066	235.186	296.970	302.222	106.174	116.845	130.286	138.403	192.977	120.307	112.978	114.434	121.715	183.667	121.644	116.678	37.036
86.000	313.682	302.819	289.498	280.784	226.305	298.522	306.448	304.944	297.328	235.401	297.066	302.962	105.911	116.821	130.286	138.379	192.977	120.283	112.882	114.243	121.811	183.691	121.811	116.630	49.669
87.000	313.968	302.748	289.140	280.426	226.281	299.143	306.782	304.896	297.304	235.496	296.922	302.509	106.006	116.988	130.405	138.498	192.977	120.259	112.930	114.362	121.596	183.524	121.691	116.654	47.684
88.000	313.944	303.058	289.737	280.593	226.496	299.167	306.663	304.729	297.686	235.281	297.161	302.342	105.911	116.845	130.286	138.427	192.977	120.235	113.001	114.291	121.667	183.762	121.811	116.582	34.554
89.000	313.467	302.413	289.546	280.402	226.353	298.976	306.758	304.825	297.400	235.377	297.257	302.795	106.269	116.750	130.143	138.355	192.954	120.259	112.954	114.338	121.333	183.667	121.811	116.606	28.554
