-----------------------------------------------------
BloodHound 307 VOC Analyser V2017.1
RoboScientific Ltd 
Espace North
Wisbech Road
Littleport
Cambridgeshire, UK
CB6 1RA 
-----------------------------------------------------
Date = 03/03/2021
Time = 12:47:41
Data is protected by RoboScientific Limited
-----------------------------------------------------
Name of the experiment = "5741P"
-----------------------------------------------------
Repeat No. = 3/4
-----------------------------------------------------
Experimental Time (in sec) and Flow Profile :
-----------------------------------------------------
Baseline = 2.00
Absorb = 4.00
Pause = 1.00
Desorb = 5.00
Flush = 18.00
Wait = 5.00
Higher Flow (V) = 4.00
Medium Flow (V) = 3.00
Low Flow (V) = 1.00
-----------------------------------------------------
Total Profile Time = 35 in sec
-----------------------------------------------------
Acquired data point per second = 4
--------------------------------------------------
Total data point stored  = 120
-----------------------------------------------------
Acquired sensor responses from 24 sensors
-----------------------------------------------------

Data Points	 Sen-1	 Sen-2	 Sen-3	 Sen-4	 Sen-5	 Sen-6	 Sen-7	 Sen-8	 Sen-9	 Sen-10	 Sen-11	 Sen-12	 Sen-13	 Sen-14	 Sen-15	 Sen-16	 Sen-17	 Sen-18	 Sen-19	 Sen-20	 Sen-21	 Sen-22	 Sen-23	 Sen-24	Humidity (%r.h.)
0.000	314.207	304.180	289.474	280.139	226.496	300.265	308.573	306.352	304.323	249.796	298.761	304.562	105.768	115.556	130.095	138.856	192.954	118.946	111.211	112.858	115.174	169.009	120.211	114.864	28.373
1.000	313.825	303.965	289.044	279.662	226.209	300.336	308.286	306.281	304.538	250.035	298.426	304.729	105.720	115.604	130.095	138.832	192.882	118.898	111.283	112.954	115.198	169.104	120.163	114.816	39.247
2.000	313.825	304.347	289.331	279.662	226.520	300.336	308.358	306.281	304.013	249.534	298.331	304.275	105.839	115.795	130.214	139.071	192.930	118.946	111.163	112.882	115.126	168.913	120.140	114.887	50.978
3.000	314.326	304.132	289.450	279.877	226.854	300.718	308.286	306.233	304.156	249.796	298.498	304.252	105.935	115.651	130.095	139.071	192.906	118.946	111.115	112.787	115.198	168.865	120.307	114.768	46.150
4.000	313.204	304.084	289.402	279.925	226.329	300.241	307.952	305.875	304.156	250.274	298.832	304.538	106.054	115.699	130.357	139.119	192.930	118.874	111.259	112.954	115.269	168.937	120.211	114.911	32.344
5.000	313.801	304.252	289.665	280.545	226.162	300.432	308.071	305.827	304.228	249.438	298.355	304.323	105.672	115.436	130.143	139.000	192.810	119.089	111.235	112.858	115.246	168.961	120.283	114.840	28.915
6.000	313.729	303.846	289.068	279.734	226.663	300.241	307.880	306.424	304.323	250.154	298.880	304.490	105.744	115.723	130.262	139.071	192.954	118.922	111.163	113.001	115.246	168.937	120.331	114.744	41.142
7.000	313.849	304.204	289.044	280.116	226.257	300.002	307.904	306.161	304.443	250.202	298.617	304.538	106.078	115.675	130.166	138.880	192.930	119.018	111.330	112.858	115.222	169.032	120.163	114.840	51.519
8.000	313.634	303.870	289.665	279.853	226.305	300.289	308.024	305.899	304.538	250.107	298.379	304.586	105.648	115.675	130.143	138.976	192.977	118.874	111.187	112.882	115.150	168.865	120.140	114.792	44.300
9.000	313.419	304.037	289.283	279.972	226.233	300.408	308.191	305.899	304.252	249.796	298.570	304.920	106.197	115.580	130.119	138.832	192.858	119.018	111.211	112.978	115.031	168.913	120.187	114.840	30.719
10.000	314.350	304.013	288.782	280.068	226.257	300.432	308.525	306.329	304.371	250.178	298.832	304.466	106.245	115.389	130.190	139.119	192.930	118.850	111.092	112.834	115.126	168.770	120.044	114.458	30.313
11.000	310.745	304.252	289.689	279.972	226.496	300.169	307.928	306.448	302.867	250.942	299.835	305.756	108.203	115.126	130.071	138.785	192.190	118.779	111.163	112.548	116.224	167.815	119.328	113.861	43.894
12.000	306.878	303.583	289.402	280.951	227.618	300.432	308.095	306.734	300.098	252.303	299.310	304.562	112.763	115.818	129.784	138.260	191.115	118.683	111.283	112.309	118.492	167.027	119.447	114.386	51.700
13.000	299.262	302.055	289.760	280.856	228.668	300.742	308.310	306.854	294.822	252.494	298.856	303.416	120.378	117.346	129.689	137.973	190.423	118.827	111.521	112.452	123.076	166.812	119.996	115.627	41.503
14.000	289.999	300.289	290.262	281.405	229.408	299.883	307.475	306.448	289.164	252.064	297.710	302.007	129.975	119.376	129.641	137.782	189.659	119.113	111.736	112.787	129.068	166.741	121.071	117.060	28.915
15.000	279.304	297.997	289.832	281.548	230.220	299.143	307.379	305.923	283.052	252.160	296.015	300.145	140.169	121.548	129.498	137.305	189.014	120.044	112.190	113.049	134.320	166.979	122.718	118.994	33.111
16.000	267.606	295.466	290.596	281.954	230.554	297.567	306.233	305.039	277.179	251.444	293.723	297.591	151.294	124.126	129.570	137.424	188.394	121.214	112.787	113.479	140.050	167.385	125.034	121.596	46.782
17.000	257.675	292.816	290.071	281.930	231.342	296.230	306.090	304.801	272.572	250.894	291.097	294.774	162.539	126.896	129.426	137.018	187.940	122.766	113.503	114.362	145.732	168.006	127.540	124.294	49.128
18.000	246.740	288.925	289.975	281.763	231.796	294.702	305.135	303.846	267.391	250.059	287.970	292.196	172.900	130.429	129.570	136.946	187.582	124.437	114.338	115.150	151.032	168.722	130.859	127.254	37.984
19.000	237.334	285.726	289.975	281.691	231.629	292.434	304.395	302.795	262.712	249.104	284.198	288.758	182.807	134.225	129.689	137.328	187.319	126.538	115.413	116.224	155.783	169.844	134.846	130.453	29.546
20.000	228.358	281.596	289.832	281.357	232.082	290.238	302.366	301.315	257.985	247.528	279.423	285.439	190.709	137.830	129.928	137.305	187.152	128.567	116.773	117.609	160.581	171.133	138.856	133.652	37.171
21.000	221.363	277.370	289.402	281.500	232.273	288.137	300.933	299.644	253.616	245.857	274.983	281.739	198.301	141.888	130.119	137.687	186.937	131.074	118.445	119.089	165.213	172.828	143.750	137.281	47.233
22.000	218.522	273.407	289.378	281.047	232.249	285.487	299.047	298.570	249.844	243.876	270.065	278.540	201.548	146.305	130.238	137.878	186.794	133.604	120.235	120.808	169.868	174.499	148.764	141.005	45.473
23.000	223.249	269.492	289.307	280.593	232.225	282.837	296.875	296.326	245.738	241.679	264.598	274.267	196.726	150.745	130.620	138.260	186.699	136.469	122.527	122.694	174.380	176.744	154.064	144.586	35.908
24.000	228.095	264.837	288.018	279.996	232.297	279.614	294.440	294.368	241.417	239.220	259.107	270.781	191.664	154.852	130.954	138.809	186.818	139.191	124.890	124.485	178.319	179.537	159.793	148.525	32.885
25.000	232.058	260.277	288.185	279.447	232.416	276.487	291.766	292.434	238.051	236.570	253.162	266.555	187.654	159.197	131.432	139.429	186.985	142.413	127.636	126.633	182.211	182.425	165.404	152.154	39.924
26.000	231.891	261.041	288.209	279.208	231.724	276.153	290.524	292.601	236.523	233.968	251.658	267.319	188.203	159.006	131.861	139.764	187.009	143.177	128.949	126.609	183.834	184.407	167.027	151.605	45.879
27.000	230.483	261.876	287.970	279.519	231.891	276.606	290.835	293.294	236.188	233.538	252.279	268.346	189.946	157.836	131.885	139.405	187.200	142.461	128.615	126.012	184.001	185.505	166.621	150.769	42.541
28.000	229.361	262.807	287.492	278.993	231.891	277.442	290.859	293.795	236.212	232.560	252.828	269.468	190.877	157.143	132.052	139.668	187.272	141.936	128.304	125.463	184.049	186.102	166.430	150.005	34.735
29.000	228.740	263.046	287.278	279.232	231.987	277.919	291.408	294.392	236.499	232.369	252.876	269.850	190.996	156.857	132.029	139.429	187.391	141.626	128.400	125.296	184.001	186.675	166.478	149.743	34.239
30.000	234.446	260.635	287.445	279.471	231.963	277.060	290.357	293.222	235.401	231.270	249.844	267.558	185.290	159.029	132.196	139.525	187.296	142.270	129.402	126.156	184.908	187.415	168.555	151.318	41.864
31.000	244.759	265.457	286.919	278.850	231.748	273.765	286.896	291.026	234.111	229.599	244.663	271.402	172.685	152.918	132.363	139.955	187.272	145.493	132.243	128.209	186.651	189.468	174.141	146.997	45.654
32.000	283.816	282.455	286.538	277.919	231.867	270.662	284.031	289.713	232.918	228.859	249.868	283.816	134.846	136.612	132.745	140.647	187.367	148.812	136.039	129.355	187.248	189.946	168.627	134.846	41.548
33.000	298.045	291.837	286.036	277.322	231.509	268.704	281.954	290.978	233.634	231.127	260.659	291.073	121.333	127.564	133.485	141.530	187.725	150.889	138.045	128.209	187.081	187.988	158.647	128.113	31.847
34.000	305.565	296.421	285.439	277.036	231.175	268.776	281.023	294.082	234.183	233.873	271.640	295.442	114.529	122.957	133.819	141.936	188.060	150.793	138.522	125.248	186.102	185.242	147.785	123.912	32.795
35.000	308.597	299.358	285.344	277.131	230.888	271.402	283.195	296.517	236.690	236.976	279.781	297.734	110.471	120.450	134.201	141.769	188.346	147.952	136.636	122.527	183.165	181.709	138.952	121.500	44.661
36.000	310.960	300.671	285.010	277.179	230.841	275.293	285.965	298.808	241.130	240.223	285.439	298.999	108.919	118.779	134.655	141.578	188.370	143.870	133.389	120.020	178.701	178.104	133.294	120.044	50.527
37.000	311.987	302.007	285.415	277.800	230.912	279.662	289.498	300.909	246.669	243.589	289.164	300.265	107.439	117.991	134.655	140.957	188.442	139.310	130.143	118.301	172.852	174.929	129.211	118.683	40.781
38.000	312.488	302.700	285.010	278.325	230.554	283.840	292.267	302.031	252.733	246.430	291.814	301.339	107.057	117.418	134.511	140.289	188.465	135.323	127.254	117.036	166.812	172.231	126.920	118.158	29.140
39.000	312.918	303.201	285.583	279.184	230.244	287.254	295.275	303.273	258.438	248.388	293.509	301.864	106.508	116.845	134.225	139.955	188.728	131.933	124.365	115.914	160.486	170.178	125.368	117.561	33.607
40.000	313.825	302.939	285.487	279.519	230.244	289.856	297.591	304.156	263.285	249.892	294.392	302.318	106.532	116.487	134.058	139.453	188.680	129.474	122.097	115.102	155.138	168.698	124.103	116.917	47.323
41.000	312.918	302.939	286.227	280.020	230.602	292.100	299.214	303.965	268.059	250.894	295.920	303.273	106.388	116.391	133.485	138.880	188.776	127.206	120.354	114.673	150.745	168.101	123.028	116.439	49.850
42.000	313.085	303.440	286.633	280.498	230.292	293.389	300.623	304.753	271.521	251.587	296.469	303.034	106.293	115.914	133.031	138.665	189.086	125.917	118.707	114.123	146.615	167.528	122.431	116.320	37.668
43.000	313.443	303.655	287.134	280.450	230.220	294.463	301.936	304.992	274.410	251.826	296.922	303.153	106.174	116.033	132.816	138.403	189.134	124.771	117.442	113.837	143.297	167.218	122.026	115.962	28.012
44.000	313.491	304.156	287.540	280.665	229.647	295.323	302.676	305.612	277.346	251.587	297.161	303.535	106.030	115.914	132.434	138.283	189.373	124.126	116.750	113.455	140.384	167.051	121.620	115.699	36.675
45.000	313.324	304.299	287.421	280.879	229.766	295.848	303.368	305.684	279.662	251.921	297.137	303.512	105.792	115.818	132.029	138.283	189.564	123.482	116.081	113.383	137.830	166.908	121.381	115.556	49.489
46.000	313.634	303.989	287.588	280.641	229.480	296.278	303.655	305.780	282.121	252.136	297.615	303.679	106.006	115.723	131.814	138.140	189.659	122.646	115.460	113.479	135.466	166.908	121.190	115.389	48.316
47.000	313.085	304.037	287.994	280.450	229.098	297.185	304.347	305.851	284.198	251.730	297.686	303.726	106.221	115.675	131.551	138.092	189.993	122.312	114.959	113.192	133.294	166.932	121.047	115.389	34.600
48.000	313.538	304.228	288.614	280.760	229.098	297.281	304.992	305.780	286.108	251.802	298.116	303.989	106.126	115.723	131.312	137.997	190.328	121.954	114.768	113.169	131.384	166.955	120.784	115.365	28.193
49.000	313.729	304.013	288.376	281.023	228.644	297.877	305.278	305.684	287.946	251.658	297.854	303.941	106.197	115.651	131.050	138.140	190.447	121.667	114.219	112.930	129.952	166.955	120.808	115.150	38.751
50.000	313.682	304.395	288.591	280.832	228.644	297.686	305.493	306.281	289.737	251.635	297.591	303.607	106.102	115.723	131.074	138.116	190.662	121.214	113.909	113.049	128.448	167.051	120.665	115.293	50.933
51.000	313.920	303.679	288.352	280.712	228.501	298.259	305.732	306.185	290.763	252.040	297.877	303.870	106.030	115.580	130.811	138.331	190.877	120.927	113.670	112.978	127.349	167.218	120.736	115.126	46.060
52.000	313.873	304.299	288.280	280.665	228.167	298.021	305.899	306.543	291.694	251.826	298.355	303.941	105.959	115.580	130.835	138.212	190.972	120.880	113.574	113.025	126.442	167.194	120.713	115.198	31.757
53.000	313.252	304.299	289.068	280.665	227.904	298.546	305.994	305.827	292.267	251.849	298.068	303.941	106.054	115.532	130.716	138.188	191.139	120.784	113.312	112.978	125.535	167.409	120.569	115.174	29.591
54.000	313.753	304.037	288.925	280.927	227.546	298.737	306.114	306.042	293.246	251.420	298.283	304.252	106.245	115.604	130.620	138.212	191.187	120.569	113.025	112.882	124.747	167.457	120.641	115.102	42.541
55.000	313.347	304.132	288.973	280.569	227.761	298.474	306.352	306.185	293.914	251.658	298.426	304.252	105.863	115.771	130.620	138.355	191.497	120.378	112.954	112.978	124.341	167.313	120.617	115.102	51.655
56.000	313.801	304.538	288.996	280.545	227.642	298.641	306.352	306.042	294.941	251.658	298.140	304.228	106.030	115.651	130.596	138.474	191.521	120.426	112.882	113.025	123.386	167.409	120.569	115.055	42.856
57.000	314.040	303.798	288.877	280.593	227.427	298.904	306.496	306.400	295.633	251.921	298.379	304.061	106.102	115.556	130.310	138.188	191.473	120.402	112.787	112.978	123.171	167.481	120.593	115.055	29.411
58.000	313.634	304.132	289.068	280.593	227.666	299.214	306.782	306.161	295.991	251.658	298.403	304.061	105.720	115.556	130.357	138.379	191.593	120.235	112.691	112.954	122.551	167.528	120.426	114.864	31.261
59.000	313.896	304.132	289.402	280.450	227.355	299.023	306.734	305.923	296.159	251.372	298.594	304.490	105.815	115.460	130.525	138.474	191.664	119.925	112.619	112.906	122.217	167.672	120.569	115.007	45.744
60.000	313.634	304.419	289.211	280.617	227.403	299.286	306.806	305.947	296.636	251.372	298.665	304.562	106.006	115.651	130.310	138.331	191.712	119.949	112.619	113.073	121.835	167.886	120.545	114.959	51.068
61.000	313.777	304.132	289.140	280.569	227.331	299.286	306.854	306.352	297.472	251.276	298.188	304.156	105.887	115.365	130.286	138.498	191.784	119.781	112.428	112.978	121.381	167.719	120.402	114.911	40.285
62.000	313.705	304.061	289.283	280.450	227.045	299.143	307.188	306.615	297.877	251.133	298.235	304.132	106.197	115.532	130.310	138.641	191.784	119.781	112.357	112.882	120.975	167.886	120.617	115.126	28.057
63.000	314.255	303.870	289.498	280.808	226.973	299.477	307.116	306.138	298.283	251.085	297.973	304.013	106.006	115.580	130.310	138.594	191.975	119.805	112.381	112.906	120.713	167.886	120.474	114.911	34.329
64.000	313.371	304.108	288.925	280.283	227.069	299.405	307.069	306.090	298.164	251.062	298.331	304.562	106.030	115.580	130.357	138.618	192.046	119.829	112.357	112.954	120.450	167.982	120.522	114.887	48.361
65.000	313.849	303.941	289.235	280.712	227.045	299.572	307.236	305.923	298.188	250.751	298.116	304.729	106.174	115.651	130.262	138.498	191.975	119.686	112.214	112.954	120.163	167.982	120.474	114.816	49.669
66.000	313.634	304.013	289.211	280.187	227.284	299.668	307.427	306.281	298.856	250.847	298.785	304.228	105.887	115.532	130.381	138.570	192.046	119.686	112.190	112.882	120.020	167.934	120.354	114.983	36.810
67.000	313.443	303.846	289.426	280.139	226.949	299.716	307.188	305.994	299.167	251.253	298.164	304.252	106.221	115.795	130.262	138.546	192.070	119.662	112.118	112.978	119.758	168.006	120.450	115.031	27.922
68.000	314.326	303.822	289.450	280.521	227.188	299.358	307.403	306.400	299.477	251.014	298.116	304.252	106.150	115.675	130.357	138.594	192.070	119.543	112.046	113.001	119.662	168.101	120.545	115.007	37.081
69.000	313.180	304.323	289.951	280.521	226.997	299.334	306.925	306.257	299.716	250.871	298.068	304.347	105.863	115.532	130.143	138.785	192.237	119.638	112.094	112.882	119.328	168.101	120.402	114.911	50.075
70.000	313.443	304.228	290.190	280.498	227.069	299.525	306.973	306.066	299.572	250.775	298.331	304.610	105.696	115.484	130.190	138.713	192.309	119.590	111.879	112.691	119.209	168.101	120.450	114.983	47.820
71.000	314.040	303.917	289.450	280.450	227.021	299.525	307.284	305.923	299.787	251.085	298.331	304.419	106.197	115.604	130.190	138.761	192.261	119.376	111.903	112.834	119.113	168.173	120.522	114.887	34.148
72.000	313.753	304.586	289.474	280.641	226.711	299.334	307.475	306.185	299.907	250.417	298.331	304.538	105.887	115.580	130.143	138.498	192.333	119.399	112.070	112.930	118.898	167.910	120.283	114.887	28.238
73.000	314.398	303.798	289.116	280.163	226.830	299.787	307.785	306.161	300.074	250.465	298.021	304.419	105.792	115.627	130.238	138.713	192.261	119.352	111.951	112.763	118.970	168.101	120.426	114.840	39.292
74.000	313.467	304.514	289.713	279.996	227.045	299.477	307.522	305.923	300.169	251.038	298.283	304.371	105.935	115.532	130.047	138.522	192.500	119.543	111.975	112.906	118.755	168.149	120.426	115.007	50.978
75.000	313.825	303.679	289.426	280.283	226.854	300.026	307.475	306.138	300.527	250.894	298.474	304.538	105.887	115.675	130.190	138.665	192.357	119.352	111.927	112.930	118.755	168.245	120.522	114.887	45.564
76.000	313.729	304.037	289.331	280.163	226.854	300.169	307.522	306.281	300.551	250.871	298.235	304.371	106.341	115.484	130.166	138.737	192.333	119.352	112.023	112.882	118.612	168.173	120.402	114.887	31.171
77.000	314.016	304.156	289.331	280.307	227.069	299.835	307.785	306.018	300.647	251.157	298.355	304.514	106.150	115.532	130.262	138.785	192.404	119.232	111.855	112.930	118.468	168.149	120.522	114.792	29.636
78.000	313.920	303.703	289.569	280.641	226.782	299.668	307.785	306.233	300.909	250.632	298.498	304.538	105.959	115.675	130.190	138.737	192.548	119.280	111.712	112.882	118.301	168.221	120.354	114.840	42.902
79.000	313.944	304.108	289.402	280.283	226.663	300.026	307.833	305.994	300.862	250.942	298.403	303.893	105.935	115.627	130.047	138.737	192.357	119.399	111.760	112.810	118.015	168.101	120.474	115.007	51.700
80.000	314.064	303.703	289.426	280.450	226.782	300.050	307.666	306.209	301.148	250.727	298.474	304.968	106.006	115.484	130.166	138.618	192.309	119.280	111.784	112.954	118.254	168.268	120.378	114.911	43.127
81.000	313.634	304.013	289.641	280.235	226.615	299.931	307.642	306.066	301.220	250.751	297.997	304.061	106.150	115.532	130.119	138.737	192.548	119.328	111.688	112.858	118.015	168.316	120.354	114.935	29.772
82.000	313.514	304.347	289.426	280.354	227.045	299.787	307.666	306.114	301.411	250.393	298.355	304.490	106.006	115.580	130.214	138.904	192.476	119.161	111.641	112.930	117.872	168.316	120.426	114.816	30.674
83.000	314.183	304.132	289.569	280.474	226.615	300.217	307.904	306.161	301.482	250.632	298.021	304.061	105.911	115.604	130.166	138.809	192.548	119.280	111.784	112.810	117.609	168.340	120.402	114.935	44.481
84.000	313.896	304.084	289.164	280.044	226.639	300.265	307.880	306.090	301.315	250.512	298.116	304.084	106.030	115.556	130.166	138.761	192.548	119.209	111.641	112.930	117.704	168.364	120.402	114.911	51.610
85.000	313.371	304.323	289.617	280.020	226.496	299.716	307.522	305.970	301.291	250.584	298.474	304.920	105.792	115.556	130.238	138.880	192.572	119.209	111.688	112.858	117.585	168.364	120.426	114.792	41.683
86.000	313.920	303.917	289.713	280.044	226.544	300.098	307.666	306.018	301.721	250.632	297.877	304.108	105.959	115.460	130.238	138.856	192.739	119.161	111.808	112.834	117.513	168.340	120.426	114.911	29.230
87.000	314.087	304.586	289.880	280.402	226.902	299.740	307.880	306.209	301.530	250.035	298.212	304.061	105.863	115.651	130.143	138.952	192.524	119.161	111.641	112.834	117.299	168.245	120.307	115.031	31.667
88.000	313.276	304.252	288.782	279.948	226.281	299.787	307.761	306.114	302.031	250.799	298.570	304.347	105.648	115.484	130.143	138.832	192.524	119.280	111.617	112.787	117.275	168.412	120.378	114.816	45.925
89.000	313.634	304.013	289.331	280.450	226.472	299.811	307.737	306.520	301.936	250.703	298.474	304.061	106.006	115.627	130.214	138.832	192.667	119.137	111.593	112.930	117.346	168.316	120.450	114.911	51.023
