-----------------------------------------------------
BloodHound 307 VOC Analyser V2017.1
RoboScientific Ltd 
Espace North
Wisbech Road
Littleport
Cambridgeshire, UK
CB6 1RA 
-----------------------------------------------------
Date = 03/03/2021
Time = 13:06:31
Data is protected by RoboScientific Limited
-----------------------------------------------------
Name of the experiment = "5804P"
-----------------------------------------------------
Repeat No. = 3/4
-----------------------------------------------------
Experimental Time (in sec) and Flow Profile :
-----------------------------------------------------
Baseline = 2.00
Absorb = 4.00
Pause = 1.00
Desorb = 5.00
Flush = 18.00
Wait = 5.00
Higher Flow (V) = 4.00
Medium Flow (V) = 3.00
Low Flow (V) = 1.00
-----------------------------------------------------
Total Profile Time = 35 in sec
-----------------------------------------------------
Acquired data point per second = 4
--------------------------------------------------
Total data point stored  = 120
-----------------------------------------------------
Acquired sensor responses from 24 sensors
-----------------------------------------------------

Data Points	 Sen-1	 Sen-2	 Sen-3	 Sen-4	 Sen-5	 Sen-6	 Sen-7	 Sen-8	 Sen-9	 Sen-10	 Sen-11	 Sen-12	 Sen-13	 Sen-14	 Sen-15	 Sen-16	 Sen-17	 Sen-18	 Sen-19	 Sen-20	 Sen-21	 Sen-22	 Sen-23	 Sen-24	Humidity (%r.h.)
0.000	314.469	304.419	289.641	280.116	226.639	300.671	308.740	306.925	304.825	256.385	299.358	304.848	105.768	115.222	130.143	138.809	192.595	118.516	110.710	112.118	114.816	162.778	119.304	114.362	32.344
1.000	314.040	304.395	289.808	280.139	226.448	300.766	308.477	306.806	305.254	256.027	299.286	305.350	105.911	115.317	130.095	138.761	192.595	118.373	110.710	112.166	114.816	162.778	119.423	114.362	28.644
2.000	314.278	304.347	289.665	280.689	226.329	300.551	308.620	306.854	304.729	256.529	299.620	305.087	105.815	115.269	130.023	138.856	192.595	118.421	110.733	112.237	114.840	162.754	119.137	114.100	40.104
3.000	313.801	304.061	289.737	280.450	226.591	301.148	308.716	306.615	305.039	256.099	299.310	304.729	105.815	115.174	130.023	138.904	192.572	118.277	110.733	112.333	114.744	162.849	119.232	114.171	51.339
4.000	313.920	304.681	289.426	280.068	226.567	301.076	308.740	306.806	304.801	256.170	299.238	304.825	106.054	115.269	130.095	139.000	192.595	118.468	110.757	112.190	114.720	162.849	119.209	114.314	45.654
5.000	314.135	304.323	289.569	279.757	226.520	300.718	308.835	306.830	305.111	256.123	299.238	304.848	105.696	115.293	130.143	139.047	192.643	118.516	110.733	112.142	114.720	162.969	119.161	114.434	31.892
6.000	313.467	304.610	289.378	279.972	226.591	300.503	308.453	306.902	305.063	256.170	299.310	305.159	105.935	115.126	130.023	138.904	192.643	118.349	110.710	112.476	114.792	162.682	119.185	114.386	29.095
7.000	313.443	304.347	289.784	279.781	226.854	300.790	308.477	306.878	305.111	256.242	299.477	305.087	105.720	115.246	129.999	138.856	192.524	118.277	110.733	112.333	114.887	162.730	119.376	114.291	41.638
8.000	313.729	304.419	289.307	279.710	226.567	300.480	308.525	306.854	304.657	256.576	299.763	305.039	105.553	115.150	130.166	139.023	192.619	118.277	110.710	112.237	114.887	162.658	119.256	114.171	51.564
9.000	313.944	304.466	289.259	279.447	226.615	300.814	308.764	306.997	304.944	256.576	299.620	304.825	105.839	115.174	130.095	138.952	192.595	118.254	110.638	112.333	114.816	162.849	119.352	114.195	44.210
10.000	313.538	304.777	289.569	279.948	226.520	301.029	308.668	306.663	304.777	256.600	299.668	305.230	105.505	115.126	130.071	138.976	192.428	118.254	110.757	112.381	114.768	162.587	119.137	113.813	30.043
11.000	311.748	304.729	289.808	279.948	227.451	300.814	308.525	307.140	303.774	257.221	300.289	306.233	107.773	114.864	129.999	138.641	191.760	118.158	110.781	111.975	115.580	161.727	118.636	113.336	30.945
12.000	307.021	304.084	289.593	280.569	228.191	300.885	308.620	307.451	300.694	257.818	300.145	305.326	112.190	115.484	129.737	138.140	190.972	118.134	110.757	111.664	118.325	161.202	118.636	114.028	44.706
13.000	299.334	302.509	289.975	280.808	229.002	301.220	308.382	307.140	295.156	258.033	299.549	304.323	120.545	116.941	129.522	137.997	189.874	118.301	110.829	111.760	123.124	160.892	119.447	115.317	51.564
14.000	290.119	300.742	290.453	281.261	229.695	300.933	308.262	306.639	289.402	258.056	298.355	302.342	130.286	118.850	129.593	137.663	189.349	118.850	111.235	111.999	129.020	161.035	120.450	116.797	41.367
15.000	278.492	298.570	289.546	281.548	230.244	299.429	307.976	306.687	283.147	258.152	296.708	300.360	141.721	121.142	129.474	137.352	188.847	119.710	111.855	112.476	135.275	160.963	121.906	118.827	29.140
16.000	267.057	295.657	290.238	282.216	230.793	298.068	307.260	306.209	277.322	257.388	294.654	297.782	152.011	123.744	129.235	137.281	188.155	120.927	112.309	113.025	140.384	161.226	124.198	121.190	32.614
17.000	256.051	292.816	289.975	282.169	231.318	296.851	306.448	305.039	272.715	256.600	291.718	294.965	163.732	126.920	129.331	137.090	187.678	122.479	113.073	113.765	145.923	161.966	126.633	123.864	45.473
18.000	245.953	289.211	289.856	282.407	231.724	294.774	305.183	304.347	267.868	255.741	288.782	292.363	174.165	130.477	129.474	137.137	187.319	124.198	114.028	114.744	150.793	163.088	130.453	127.254	49.579
19.000	235.496	285.487	290.262	281.715	232.058	292.816	304.371	303.130	263.094	254.929	284.866	289.402	184.049	133.891	129.546	137.042	187.200	126.371	115.150	115.890	156.045	164.043	134.201	130.596	40.691
20.000	226.973	281.524	289.593	281.739	232.273	290.739	302.580	301.817	258.510	253.330	280.020	285.248	192.930	138.236	129.832	137.281	186.937	128.662	116.582	117.179	160.653	165.451	138.737	134.082	30.719
21.000	219.978	276.821	289.235	281.381	232.751	288.233	300.885	300.217	253.377	251.897	275.412	281.811	199.662	141.984	129.952	137.639	186.818	130.811	118.086	118.659	165.213	166.955	143.082	137.424	35.231
22.000	219.668	272.906	289.307	280.975	232.106	285.415	299.310	298.761	249.653	249.343	270.208	278.110	199.829	146.424	130.119	137.878	186.794	133.556	119.996	120.378	169.844	169.104	148.621	141.387	45.338
23.000	225.111	268.680	289.211	280.665	232.369	283.052	297.400	297.090	245.547	247.242	264.837	274.386	194.625	150.912	130.668	138.260	186.627	136.350	122.288	122.145	174.404	171.706	154.088	145.063	46.466
24.000	230.292	264.550	288.567	279.901	232.154	279.686	294.463	294.798	241.823	244.114	258.749	270.399	189.373	155.138	131.002	138.904	186.460	139.238	124.676	124.413	178.725	174.332	159.841	149.074	38.209
25.000	234.183	259.751	287.994	278.922	232.249	276.487	291.861	292.983	238.051	240.891	253.568	266.699	186.126	159.769	131.479	139.382	186.723	142.748	127.731	126.442	182.043	177.889	165.427	152.679	33.020
26.000	233.944	260.492	287.134	278.922	232.225	277.227	291.408	293.150	236.618	238.528	251.993	266.914	186.484	159.053	131.861	139.620	187.081	142.915	128.495	126.108	183.643	180.134	166.812	151.867	38.119
27.000	232.034	261.518	287.540	279.089	232.345	277.107	291.121	293.771	236.427	238.194	252.924	268.274	187.821	158.122	131.766	139.501	187.152	142.223	128.400	125.368	183.762	181.208	166.573	151.056	45.067
28.000	231.509	262.378	287.994	278.850	231.652	277.275	291.097	294.058	236.236	236.737	252.542	269.134	188.728	157.382	131.909	139.405	187.176	141.769	128.209	124.890	183.882	181.876	166.287	150.292	44.706
29.000	231.438	263.189	287.397	278.993	231.939	277.895	291.336	294.272	236.690	236.427	252.757	269.349	189.277	157.000	131.933	139.334	187.319	141.315	128.161	124.652	183.906	182.545	166.621	149.838	37.217
30.000	236.475	260.253	287.230	278.779	231.987	276.845	290.238	293.532	235.878	235.424	250.536	267.964	183.070	159.197	132.339	139.549	187.200	142.032	128.853	125.439	184.383	183.380	168.889	151.605	33.066
31.000	239.698	264.287	286.943	278.850	231.987	273.789	287.636	291.575	234.398	233.133	244.711	270.495	181.781	155.592	132.339	139.931	187.128	145.159	131.957	127.731	186.126	185.314	174.117	149.122	38.796
32.000	279.375	279.805	286.705	277.967	232.249	270.590	283.888	290.142	233.180	232.584	248.149	282.431	138.761	138.809	132.769	140.766	187.319	148.692	135.419	129.068	187.128	186.150	170.417	136.541	46.195
33.000	296.278	290.691	286.227	277.203	231.652	267.892	281.787	291.503	233.419	234.493	258.749	290.381	122.694	128.591	133.461	141.363	187.463	150.841	137.878	127.875	186.985	184.240	159.960	128.376	44.842
34.000	304.681	296.135	285.296	276.606	231.223	268.083	281.381	293.676	233.777	237.191	270.113	294.845	115.771	123.506	133.986	141.745	187.892	151.318	138.570	125.678	186.388	181.423	149.361	124.508	34.013
35.000	308.501	299.310	285.081	277.084	231.318	270.447	282.431	296.636	235.854	240.963	278.492	297.710	111.283	120.569	134.297	141.888	188.155	149.194	136.851	122.622	184.240	177.770	140.217	121.429	30.088
36.000	310.602	300.718	285.320	277.131	230.721	274.195	285.845	298.832	239.722	245.045	285.129	299.620	109.206	118.588	134.822	141.626	188.251	145.159	134.106	120.402	179.919	174.189	133.867	119.901	41.728
37.000	311.557	302.270	284.651	277.728	230.865	278.325	288.686	301.148	245.141	247.982	288.805	300.623	107.821	117.633	134.774	141.029	188.394	140.838	130.716	118.349	174.165	170.226	129.713	118.445	50.797
38.000	312.655	303.058	284.986	278.492	230.936	282.837	291.742	302.055	251.300	251.300	291.623	301.411	106.938	117.036	134.798	140.480	188.346	136.278	127.349	116.726	167.910	167.194	126.729	117.752	44.255
39.000	313.133	303.273	285.463	278.922	230.769	286.633	294.678	303.273	257.054	253.377	293.771	302.222	106.747	116.511	134.535	139.907	188.489	132.912	124.747	115.651	162.228	165.141	125.057	117.060	30.900
40.000	313.037	303.535	285.105	279.280	230.650	289.116	296.946	304.228	262.664	255.693	295.466	302.915	106.365	116.296	134.249	139.286	188.394	130.047	122.551	114.911	156.499	163.327	123.553	116.535	30.404
41.000	313.252	303.917	286.466	280.092	230.888	291.527	299.095	304.490	267.391	256.409	296.182	303.392	106.221	116.057	133.843	139.000	188.585	127.731	120.378	114.314	151.485	162.396	122.599	116.105	43.759
42.000	313.634	303.893	286.442	280.259	230.316	292.864	300.575	305.326	270.733	256.934	296.970	303.535	105.959	115.723	133.318	138.665	188.776	126.180	118.779	113.694	147.499	161.679	121.835	115.747	51.519
43.000	313.634	304.443	287.134	280.712	230.435	294.082	301.673	305.493	274.171	257.006	297.209	303.464	106.174	115.651	132.936	138.427	189.062	124.962	117.609	113.383	144.013	161.178	121.262	115.532	42.541
44.000	313.753	304.443	287.206	280.856	229.886	295.204	303.177	305.827	277.298	257.675	297.734	303.464	106.102	115.747	132.458	138.331	189.158	123.983	116.511	113.049	140.981	161.059	121.023	115.436	29.366
45.000	313.777	303.917	287.254	280.593	229.838	295.968	303.679	306.257	279.901	257.698	298.379	304.204	105.839	115.556	132.100	138.212	189.396	123.339	115.556	112.882	138.116	161.011	120.665	115.222	31.441
46.000	313.825	304.228	287.564	280.736	229.528	296.278	304.037	306.281	281.691	257.961	298.403	304.538	105.863	115.556	131.981	138.260	189.659	122.646	115.102	112.787	135.777	160.892	120.474	115.126	45.879
47.000	313.944	303.965	287.469	280.689	229.193	297.281	305.039	306.352	284.437	258.104	298.880	304.323	105.768	115.293	131.742	138.212	189.635	122.002	114.434	112.619	133.389	160.915	120.259	114.935	51.249
48.000	313.920	303.846	287.946	280.927	229.552	297.424	305.039	306.305	286.084	257.937	298.450	304.729	105.768	115.317	131.432	138.045	189.826	121.620	114.267	112.715	131.623	160.939	120.020	114.840	40.465
49.000	314.016	304.371	288.376	281.023	228.955	297.925	305.732	306.878	287.851	257.961	298.450	304.681	105.792	115.293	131.145	138.092	189.993	121.405	113.837	112.524	129.975	160.939	119.949	114.577	28.193
50.000	313.514	304.275	288.328	280.641	228.573	298.403	305.875	306.615	289.617	258.033	298.880	304.538	105.863	115.269	131.288	138.188	190.256	120.904	113.550	112.500	128.591	160.987	120.092	114.744	33.111
51.000	313.992	304.204	288.400	280.474	228.621	298.546	306.567	307.045	290.500	257.722	298.928	304.562	105.863	115.269	130.978	138.116	190.590	120.784	113.216	112.405	126.872	161.083	119.829	114.696	47.143
52.000	314.087	304.634	288.758	281.238	228.597	298.880	306.663	306.663	291.599	257.746	298.856	304.634	105.983	115.365	130.620	138.164	190.709	120.641	113.049	112.500	126.012	161.059	119.638	114.649	50.662
53.000	314.087	304.108	288.805	281.023	228.501	298.928	306.949	306.854	292.840	257.794	299.047	304.657	105.720	115.269	130.644	138.212	190.877	120.522	112.930	112.405	125.105	161.130	119.590	114.673	39.021
54.000	313.873	304.395	288.853	280.689	228.071	298.999	306.543	306.329	293.867	257.961	298.928	304.538	106.006	115.341	130.596	138.164	190.972	120.163	112.691	112.428	124.270	161.202	119.734	114.625	27.877
55.000	313.419	304.347	289.307	280.712	228.000	299.047	306.615	306.520	294.511	257.603	299.477	304.992	105.720	115.269	130.405	138.283	190.972	120.163	112.572	112.357	123.673	161.202	119.758	114.577	35.367
56.000	313.849	304.586	289.140	280.736	227.737	298.928	307.069	306.949	295.156	257.507	298.999	304.490	105.887	115.126	130.548	138.331	191.187	119.781	112.428	112.381	123.028	161.154	119.567	114.601	48.767
57.000	314.016	304.252	289.187	280.498	227.904	299.668	307.403	306.496	295.609	257.125	299.023	305.207	105.863	115.269	130.381	138.331	191.282	119.758	112.166	112.190	122.575	161.321	119.758	114.601	49.399
58.000	313.395	304.252	289.044	280.712	227.713	299.381	307.236	306.615	296.182	257.531	299.023	304.586	105.959	115.126	130.453	138.260	191.330	119.590	112.261	112.381	122.049	161.345	119.519	114.601	35.998
59.000	314.159	304.443	289.235	280.736	227.642	299.644	307.331	306.352	297.018	257.722	299.190	305.016	105.815	115.341	130.453	138.522	191.450	119.662	112.070	112.357	121.429	161.393	119.614	114.577	27.877
60.000	313.753	304.156	288.949	280.498	227.594	299.644	307.642	306.806	297.567	257.507	299.429	304.801	105.601	115.174	130.286	138.427	191.473	119.495	112.094	112.285	121.285	161.560	119.590	114.482	37.126
61.000	314.493	304.275	289.211	280.426	227.594	299.835	307.785	306.878	298.140	257.125	298.928	304.944	106.054	115.293	130.334	138.403	191.593	119.423	111.879	112.333	120.999	161.584	119.638	114.577	50.166
62.000	314.231	304.299	289.116	280.521	227.642	299.572	307.284	306.902	298.403	257.221	299.453	304.729	105.815	115.246	130.310	138.474	191.593	119.399	111.855	112.405	120.545	161.703	119.519	114.529	47.729
63.000	314.207	304.562	289.307	280.808	227.618	299.549	307.761	306.902	298.498	257.221	299.310	304.586	105.863	115.341	130.238	138.451	191.569	119.232	111.832	112.166	120.068	161.799	119.614	114.434	33.652
64.000	313.729	304.347	289.283	280.736	227.713	300.098	307.666	306.520	298.641	256.887	298.952	304.538	105.815	115.102	130.310	138.546	191.664	119.232	111.641	112.285	119.877	161.823	119.590	114.386	28.509
65.000	313.896	304.610	289.331	280.593	227.737	299.883	307.642	306.758	298.808	257.102	299.381	304.896	105.696	115.365	130.238	138.403	191.712	119.113	111.712	112.333	119.614	161.679	119.495	114.386	39.924
66.000	313.944	304.490	289.378	280.760	227.761	299.859	307.856	306.615	299.262	257.436	299.190	304.729	105.625	115.293	130.166	138.713	191.712	119.113	111.593	112.214	119.304	161.655	119.447	114.458	51.474
67.000	314.422	304.323	289.092	280.307	226.878	300.002	308.047	306.782	299.644	257.484	299.859	304.801	105.911	115.246	130.143	138.307	191.832	119.089	111.617	112.261	119.161	161.846	119.376	114.482	45.654
68.000	313.777	304.466	289.450	280.617	227.236	300.217	307.594	306.567	299.596	257.555	298.976	304.610	106.030	115.174	130.262	138.474	191.736	118.946	111.426	112.285	118.994	161.823	119.352	114.410	31.712
69.000	313.753	304.848	289.283	280.712	227.355	300.098	307.713	306.878	299.931	256.815	299.692	304.777	105.792	115.317	130.238	138.498	191.832	119.065	111.617	112.333	118.922	161.846	119.423	114.386	29.185
70.000	314.016	304.395	289.116	280.498	227.355	300.623	308.406	306.830	300.312	257.197	299.119	304.443	105.744	115.317	130.214	138.498	191.879	119.041	111.521	112.214	118.779	161.823	119.376	114.434	41.999
71.000	313.634	304.705	289.665	280.498	227.546	300.074	307.642	306.878	300.384	257.149	299.214	304.657	105.815	115.317	130.214	138.522	191.879	119.065	111.545	112.357	118.612	161.990	119.471	114.482	51.700
72.000	313.849	304.275	289.235	280.259	227.021	300.336	308.071	307.069	300.408	256.767	299.071	305.159	105.625	115.222	130.286	138.618	191.903	118.970	111.450	112.285	118.421	161.823	119.376	114.386	43.984
73.000	313.968	304.132	289.235	280.521	227.284	300.217	308.334	306.734	300.480	256.720	299.381	304.801	105.744	115.246	130.143	138.665	191.951	118.898	111.402	112.261	118.373	161.942	119.495	114.434	30.764
74.000	314.016	304.538	289.880	280.259	227.284	300.145	308.095	306.639	301.029	257.054	299.429	304.681	105.768	115.102	130.095	138.618	192.070	118.922	111.450	112.285	118.182	161.942	119.590	114.482	29.772
75.000	313.873	304.323	289.331	280.378	227.307	300.503	308.310	306.973	300.885	257.173	299.310	304.681	105.696	115.293	130.238	138.618	192.023	118.874	111.426	112.166	118.158	162.133	119.423	114.219	43.217
76.000	313.944	304.466	289.426	280.856	226.711	300.408	308.047	306.639	301.148	257.197	298.928	304.586	105.768	115.150	130.071	138.594	192.214	118.874	111.402	112.333	118.015	161.966	119.399	114.434	51.655
77.000	313.849	304.490	289.187	280.330	226.520	300.503	308.047	306.854	301.649	256.863	299.310	304.634	105.839	115.317	130.119	138.474	192.070	118.827	111.306	112.309	117.872	161.966	119.447	114.434	42.856
78.000	314.064	304.347	289.737	280.378	227.212	300.121	308.167	306.949	301.578	257.293	299.286	304.657	105.792	115.269	130.143	138.594	192.118	118.683	111.354	112.405	117.681	162.037	119.352	114.243	29.682
79.000	314.040	304.610	288.901	280.211	227.069	300.121	308.119	307.045	301.721	257.269	299.286	304.681	105.815	115.007	130.214	138.594	192.070	118.850	111.163	112.381	117.704	162.109	119.376	114.314	31.216
80.000	313.801	304.419	289.307	279.948	226.854	300.623	307.976	306.543	301.673	256.672	299.167	304.848	105.815	115.198	130.166	138.665	192.118	118.850	111.330	112.428	117.227	162.085	119.495	114.505	45.293
81.000	314.111	304.538	289.737	280.116	227.021	300.408	308.191	306.734	301.960	256.767	299.023	304.872	105.481	115.198	130.310	138.665	192.094	118.707	111.115	112.118	117.299	162.061	119.328	114.219	51.339
82.000	313.801	304.848	289.808	280.259	226.949	300.145	307.976	306.711	301.960	257.030	299.190	304.848	105.768	115.293	130.286	138.809	192.118	118.683	111.283	112.333	117.346	162.157	119.376	114.410	40.510
83.000	314.446	304.275	289.211	280.139	227.021	300.814	308.406	306.639	302.175	257.078	299.143	304.944	106.006	115.174	130.095	138.594	192.237	118.874	111.283	112.381	117.203	162.157	119.447	114.386	28.193
84.000	313.896	304.371	289.044	280.116	227.045	300.360	308.310	306.758	301.984	256.576	299.358	304.825	105.601	115.246	130.190	138.785	192.190	118.731	111.306	112.357	117.179	162.061	119.304	114.386	33.156
85.000	313.682	304.228	289.378	280.498	226.973	300.456	308.167	306.639	302.413	257.125	299.262	304.705	105.696	115.174	130.143	138.761	192.285	118.636	111.283	112.237	117.060	162.228	119.304	114.195	46.962
86.000	314.087	304.538	289.951	280.474	227.093	300.503	308.095	306.496	302.461	256.958	299.071	304.657	105.935	115.078	130.119	138.689	192.261	118.755	111.211	112.190	116.869	162.109	119.399	114.314	50.527
87.000	313.705	304.323	289.880	280.474	226.926	300.265	308.071	306.973	302.437	256.552	299.358	304.968	105.792	115.198	130.143	138.522	192.070	118.612	111.115	112.237	116.941	162.037	119.376	114.458	38.254
88.000	313.849	304.299	289.259	279.877	226.782	300.575	308.167	307.164	302.533	256.863	299.190	304.896	105.744	115.222	130.095	138.785	192.285	118.636	111.139	112.190	116.821	162.228	119.399	114.386	27.922
89.000	313.992	304.371	289.975	280.521	226.830	300.814	308.143	306.352	302.485	256.743	299.453	304.872	105.744	115.269	130.023	138.737	192.142	118.683	111.139	112.237	116.582	162.205	119.399	114.410	35.141
