-----------------------------------------------------
BloodHound 307 VOC Analyser V2017.1
RoboScientific Ltd 
Espace North
Wisbech Road
Littleport
Cambridgeshire, UK
CB6 1RA 
-----------------------------------------------------
Date = 03/03/2021
Time = 12:32:07
Data is protected by RoboScientific Limited
-----------------------------------------------------
Name of the experiment = "5863P"
-----------------------------------------------------
Repeat No. = 4/4
-----------------------------------------------------
Experimental Time (in sec) and Flow Profile :
-----------------------------------------------------
Baseline = 2.00
Absorb = 4.00
Pause = 1.00
Desorb = 5.00
Flush = 18.00
Wait = 5.00
Higher Flow (V) = 4.00
Medium Flow (V) = 3.00
Low Flow (V) = 1.00
-----------------------------------------------------
Total Profile Time = 35 in sec
-----------------------------------------------------
Acquired data point per second = 4
--------------------------------------------------
Total data point stored  = 120
-----------------------------------------------------
Acquired sensor responses from 24 sensors
-----------------------------------------------------

Data Points	 Sen-1	 Sen-2	 Sen-3	 Sen-4	 Sen-5	 Sen-6	 Sen-7	 Sen-8	 Sen-9	 Sen-10	 Sen-11	 Sen-12	 Sen-13	 Sen-14	 Sen-15	 Sen-16	 Sen-17	 Sen-18	 Sen-19	 Sen-20	 Sen-21	 Sen-22	 Sen-23	 Sen-24	Humidity (%r.h.)
0.000	313.634	303.774	289.140	279.495	225.994	299.620	308.047	305.612	300.957	244.711	297.877	303.870	105.911	115.986	130.238	139.000	193.240	119.328	111.832	113.431	118.445	174.332	120.617	115.222	29.456
1.000	313.586	303.344	289.426	279.734	225.636	299.740	307.785	306.090	300.503	244.974	298.212	303.941	106.054	116.009	130.238	138.904	193.168	119.209	111.593	113.312	118.230	174.213	120.784	115.246	42.044
2.000	313.801	303.607	289.235	280.259	225.994	299.931	307.809	305.445	300.790	244.783	298.045	303.679	105.935	115.842	130.190	139.047	193.336	119.399	111.760	113.360	118.254	174.332	120.665	115.269	51.655
3.000	313.825	303.893	289.235	280.020	225.803	299.954	307.689	305.374	300.575	244.926	298.045	303.870	105.648	116.009	130.286	139.023	193.168	119.376	111.712	113.431	118.349	174.404	120.784	115.317	43.939
4.000	313.944	303.798	289.283	280.116	225.803	299.549	307.666	305.803	300.766	245.045	297.806	303.893	105.815	115.986	130.143	139.047	193.264	119.304	111.688	113.407	118.349	174.213	120.784	115.293	30.719
5.000	313.634	303.870	289.211	279.734	226.066	300.026	307.856	305.708	300.790	244.640	298.068	304.013	105.863	116.081	130.214	139.023	193.073	119.376	111.593	113.360	118.277	174.285	120.736	115.269	30.088
6.000	314.135	303.941	289.187	279.734	225.994	299.596	308.024	305.851	300.599	244.687	298.235	303.917	105.863	115.962	130.190	138.976	193.192	119.280	111.569	113.216	118.134	174.308	120.760	115.436	43.308
7.000	313.443	303.774	289.355	279.590	225.660	299.572	307.737	305.660	300.790	244.401	297.973	303.726	105.959	116.057	130.334	139.047	193.240	119.328	111.664	113.336	118.086	174.285	120.784	115.293	51.519
8.000	313.514	303.583	289.307	279.972	225.994	300.098	307.713	305.899	301.172	244.616	297.949	303.870	105.863	115.938	130.262	139.167	193.383	119.328	111.760	113.312	118.277	174.213	120.545	115.246	42.811
9.000	313.658	303.774	289.784	280.139	225.851	299.596	307.522	305.660	300.742	244.449	298.021	303.893	105.768	115.938	130.166	139.095	193.121	119.376	111.545	113.383	118.110	174.308	120.569	115.269	29.501
10.000	314.087	303.965	289.331	280.211	226.305	299.787	308.000	305.756	300.456	244.663	297.830	304.061	105.959	115.627	130.310	139.023	193.121	119.185	111.545	113.312	118.230	173.926	120.522	114.768	31.080
11.000	311.366	303.822	289.211	280.044	226.353	300.002	307.284	306.042	299.931	245.881	298.737	305.350	107.869	115.484	130.143	138.689	192.357	119.065	111.569	113.097	119.209	172.828	119.901	114.243	44.571
12.000	306.376	303.344	289.498	280.569	227.666	300.026	307.570	306.138	296.899	247.170	299.167	304.538	112.787	116.248	129.975	138.188	191.378	118.874	111.664	112.882	121.047	172.231	119.734	114.816	51.610
13.000	299.835	302.270	290.047	280.927	228.239	299.954	307.451	306.233	292.840	246.860	298.116	303.392	120.116	117.442	129.808	137.973	190.566	119.137	111.951	112.930	125.129	171.802	120.498	116.129	41.413
14.000	289.498	300.312	290.047	281.524	229.337	299.787	307.093	306.066	287.134	246.884	297.090	301.315	129.880	119.638	129.617	137.687	189.707	119.471	111.975	112.954	130.047	171.730	121.763	117.585	29.321
15.000	279.017	297.782	289.784	281.357	229.838	298.498	306.758	305.421	281.667	247.170	295.705	299.477	140.002	121.763	129.474	137.519	189.205	120.259	112.476	113.407	135.490	171.945	123.195	119.471	32.253
16.000	267.558	295.036	289.689	281.811	230.363	297.472	306.281	305.063	276.248	246.549	293.270	296.946	151.342	124.652	129.593	137.161	188.585	121.644	113.216	114.052	140.909	172.327	125.463	121.978	46.150
17.000	257.245	292.291	289.737	281.285	230.960	296.230	305.445	304.490	271.688	246.191	290.477	294.153	162.491	127.660	129.570	137.233	188.060	123.076	113.765	114.768	146.257	173.043	128.137	124.747	49.534
18.000	247.003	288.925	289.689	282.121	231.772	294.535	304.657	303.464	266.579	244.854	286.991	291.121	173.162	131.121	129.641	137.114	187.606	124.986	114.816	115.699	151.581	173.950	131.336	127.803	39.518
19.000	237.072	284.723	289.784	281.978	231.652	292.363	303.416	302.222	262.019	243.685	283.434	288.185	182.951	134.798	129.999	137.066	187.367	126.824	116.248	117.084	156.857	175.096	135.419	131.026	29.997
20.000	228.286	281.261	289.808	281.309	231.605	289.856	301.888	300.742	257.293	242.109	279.065	284.866	191.378	138.546	129.975	137.281	187.224	129.068	117.442	118.063	161.393	176.266	139.477	134.129	35.908
21.000	220.814	276.511	289.283	281.572	232.106	287.516	300.145	299.596	252.661	240.772	273.956	280.903	198.970	142.676	130.166	137.567	187.224	131.432	119.161	119.519	166.120	177.937	144.610	138.069	46.376
22.000	218.928	272.404	289.116	281.070	232.202	284.580	298.140	298.307	248.054	239.316	269.468	277.680	201.572	146.973	130.357	137.878	186.961	134.225	121.285	121.476	170.799	179.752	150.172	141.769	46.285
23.000	223.368	268.155	288.686	280.139	231.772	281.930	295.920	295.872	243.876	237.263	264.192	273.908	196.845	151.342	130.692	138.451	186.985	137.448	123.625	123.243	175.669	181.996	155.114	145.350	38.074
24.000	228.191	263.858	288.447	279.399	232.273	279.041	293.652	294.368	240.008	234.851	258.128	269.850	191.473	155.830	131.288	139.095	186.985	140.122	126.036	125.368	179.728	184.311	160.892	149.408	32.479
25.000	232.416	259.035	287.206	279.399	232.225	275.747	290.882	292.005	236.093	232.202	252.136	265.887	187.701	160.175	131.670	139.525	187.081	143.321	129.068	127.206	183.452	186.723	166.406	153.013	38.254
26.000	232.321	260.110	287.564	278.731	231.843	275.317	289.951	292.458	234.851	229.886	251.157	266.675	188.489	159.531	131.933	139.692	187.224	143.918	130.166	127.015	185.242	188.895	168.149	152.607	45.022
27.000	230.530	261.112	286.943	278.779	231.652	275.938	289.808	293.007	234.851	229.790	251.849	268.370	189.802	158.504	132.172	139.668	187.391	143.249	129.904	126.490	185.147	189.420	167.624	151.414	44.706
28.000	229.313	261.733	287.325	279.471	232.011	277.060	289.760	293.509	235.305	229.074	251.849	268.489	190.614	157.645	132.172	139.382	187.439	142.604	129.832	126.084	185.099	190.328	167.409	150.817	37.352
29.000	229.122	262.378	287.469	279.423	231.581	276.845	289.856	293.509	234.971	228.406	251.802	268.991	190.733	157.358	132.315	139.358	187.558	142.199	129.713	125.798	185.075	190.542	167.576	150.530	32.930
30.000	233.753	259.370	286.991	278.946	231.629	275.651	288.519	292.530	234.207	226.997	249.032	266.985	185.911	159.698	132.291	139.620	187.534	143.321	130.716	126.514	185.935	191.402	169.725	152.225	38.615
31.000	251.587	267.439	286.538	278.277	231.414	272.309	285.201	290.644	232.512	225.445	244.234	272.930	166.191	151.676	132.769	140.337	187.510	146.472	134.058	128.758	187.176	193.455	175.025	145.947	45.022
32.000	286.705	283.888	286.418	278.086	231.557	269.850	282.551	289.498	232.512	225.469	250.512	285.033	132.482	134.917	133.222	141.124	187.606	149.743	137.615	129.689	187.487	193.550	168.030	133.843	44.751
33.000	299.405	293.079	285.917	277.203	231.175	267.248	279.399	291.479	232.679	227.498	262.067	291.885	119.758	126.609	133.580	141.721	187.964	151.700	139.931	127.875	187.534	191.330	156.570	127.349	35.322
34.000	306.305	297.281	285.272	277.012	230.721	268.847	280.378	294.368	233.729	230.363	273.001	295.347	113.622	122.694	134.129	141.864	188.203	151.080	139.525	125.201	186.794	188.656	145.923	123.601	30.043
35.000	309.337	300.002	285.081	277.012	230.841	271.760	282.169	296.612	235.997	233.538	281.405	297.710	110.351	120.140	134.702	141.864	188.418	147.761	137.424	122.384	183.476	185.195	137.615	121.142	39.112
36.000	311.748	300.623	284.819	277.275	230.411	275.747	285.654	298.880	240.868	236.833	286.275	299.453	108.513	118.779	134.846	141.435	188.632	143.321	133.915	120.163	178.415	181.685	132.243	119.829	50.121
37.000	312.082	302.222	284.437	277.704	230.435	280.330	289.140	300.647	246.764	239.889	289.951	300.145	107.463	117.895	134.846	140.814	188.585	138.618	130.190	118.397	171.993	178.630	128.639	118.803	46.511
38.000	312.942	302.342	284.604	278.301	230.912	284.986	292.745	302.031	252.948	242.419	292.196	300.623	107.129	117.370	134.750	140.313	188.680	134.798	127.325	117.108	165.929	176.457	126.657	118.206	33.336
39.000	312.751	302.700	285.583	279.375	230.363	287.970	295.108	302.676	258.820	244.281	293.819	301.554	106.818	117.012	134.320	139.692	188.680	131.479	124.532	115.986	159.937	174.571	125.201	117.776	28.960
40.000	313.324	303.010	285.845	279.638	230.220	290.214	297.233	303.679	263.953	245.571	295.180	302.485	106.412	116.750	134.153	139.310	188.919	128.853	122.097	115.174	154.517	173.401	124.222	117.251	39.382
41.000	312.655	303.440	286.227	280.092	229.766	291.885	298.737	303.941	267.916	245.809	295.562	302.533	106.102	116.511	133.771	138.832	189.110	127.111	120.259	114.792	150.077	172.661	123.195	116.726	50.662
42.000	313.705	303.106	286.227	279.948	230.077	293.676	300.862	304.586	271.211	246.812	296.278	302.652	106.269	116.344	133.127	138.427	189.134	125.726	118.731	114.577	146.066	172.375	122.551	116.439	45.970
43.000	313.347	303.750	286.872	280.808	229.719	294.678	301.602	305.087	273.980	246.621	296.493	302.891	106.245	116.081	132.673	138.236	189.420	124.676	117.824	114.291	143.273	172.208	122.336	116.296	32.614
44.000	313.252	303.512	287.206	281.023	229.289	295.013	302.437	304.825	276.773	247.027	297.209	303.177	105.863	116.200	132.363	138.140	189.707	123.959	117.012	113.885	140.599	171.849	121.739	116.129	29.095
45.000	313.395	303.655	287.469	280.569	229.217	295.848	302.962	305.254	278.731	247.027	297.233	303.559	105.983	116.033	132.076	138.212	189.802	123.243	116.296	113.718	138.260	171.921	121.548	115.986	40.736
46.000	313.491	303.249	287.636	280.784	228.907	296.421	303.870	305.517	280.975	247.003	297.113	302.986	106.245	115.914	131.957	138.069	189.922	122.742	115.723	113.670	135.848	171.945	121.620	116.057	51.113
47.000	313.013	304.228	288.328	281.047	228.955	296.731	304.252	305.254	283.004	246.931	297.424	303.416	106.054	116.105	131.670	138.116	190.256	122.384	115.269	113.670	134.153	171.921	121.262	115.771	45.067
48.000	313.610	303.703	288.161	280.999	228.668	297.352	304.299	305.469	284.819	247.099	297.663	303.297	106.102	115.986	131.312	138.188	190.614	122.145	114.959	113.550	132.625	171.897	121.333	115.842	31.216
49.000	313.419	303.726	287.827	280.903	228.740	297.639	304.657	305.374	286.299	247.170	298.068	304.275	106.006	115.890	131.265	138.140	190.662	121.811	114.768	113.455	131.265	172.088	121.047	115.484	29.636
50.000	314.255	303.989	288.161	280.426	228.167	297.448	305.159	305.803	288.065	246.788	297.257	303.392	106.341	115.747	131.121	138.212	190.996	121.596	114.291	113.503	129.904	171.993	121.190	115.723	41.728
51.000	313.992	303.822	288.065	280.808	228.000	297.686	305.612	305.899	288.591	246.693	297.758	303.607	106.102	116.105	131.050	138.116	191.187	121.285	114.028	113.312	128.710	172.279	121.190	115.723	51.384
52.000	313.682	303.846	288.686	280.641	227.713	298.212	305.517	306.018	289.928	246.645	297.877	303.655	105.983	116.009	130.930	138.188	191.306	120.951	113.813	113.455	127.994	172.351	121.047	115.604	44.706
53.000	313.514	303.726	288.782	280.712	227.737	298.021	305.565	305.660	290.763	246.215	297.973	303.917	106.030	115.914	131.050	138.236	191.473	120.951	113.813	113.503	127.349	172.399	120.999	115.460	31.396
54.000	313.705	303.512	289.140	280.879	227.522	298.331	305.827	305.780	291.455	246.573	297.877	303.679	105.672	115.962	130.716	138.212	191.402	120.927	113.622	113.431	126.609	172.422	120.975	115.269	29.591
55.000	313.873	303.703	288.853	280.498	227.618	298.761	305.780	305.612	291.790	246.287	297.448	303.559	106.126	115.890	130.596	138.236	191.641	120.617	113.383	113.479	126.203	172.637	120.975	115.556	42.405
56.000	313.204	303.941	289.068	280.521	227.284	298.116	305.970	305.398	292.363	246.358	297.567	303.870	105.959	115.962	130.596	138.260	191.688	120.617	113.479	113.431	125.678	172.542	120.904	115.556	51.474
57.000	313.324	304.299	289.498	280.999	227.570	298.498	305.970	305.541	292.936	246.239	297.782	303.726	106.030	115.914	130.453	138.331	191.712	120.641	113.312	113.431	125.081	172.661	120.880	115.389	43.939
58.000	313.896	303.559	289.259	280.760	226.973	299.167	306.305	305.636	293.867	246.144	297.615	303.703	105.863	115.962	130.453	138.451	191.784	120.426	113.097	113.216	124.795	172.804	121.047	115.508	30.404
59.000	313.586	303.822	289.641	280.856	227.307	298.856	306.209	305.541	293.747	246.358	297.854	303.726	106.174	115.914	130.357	138.307	191.999	120.378	113.025	113.383	124.341	172.661	120.880	115.556	30.133
60.000	313.920	303.798	288.901	280.689	227.236	298.737	306.233	305.493	293.914	246.311	297.973	303.679	106.006	115.771	130.381	138.427	192.046	120.283	112.978	113.455	123.959	172.781	120.975	115.365	43.127
61.000	313.658	303.917	288.925	280.163	227.403	298.904	306.281	306.042	294.607	246.215	297.567	303.559	106.030	115.795	130.310	138.379	192.142	120.211	113.001	113.312	123.840	172.781	120.808	115.532	51.610
62.000	313.753	304.156	288.949	280.641	226.902	298.761	306.615	306.042	295.108	246.358	297.782	303.559	106.126	115.747	130.453	138.427	192.023	120.140	112.954	113.360	123.386	172.781	120.880	115.627	42.811
63.000	313.896	303.488	288.996	280.617	226.663	299.095	306.663	305.517	295.204	245.881	297.782	303.440	106.293	115.818	130.334	138.618	192.285	120.068	112.787	113.431	123.124	172.948	120.927	115.556	29.862
64.000	313.705	303.703	289.211	280.426	226.902	299.119	306.854	305.660	295.681	245.929	297.830	303.607	106.078	115.842	130.310	138.451	192.285	120.163	112.739	113.288	122.885	172.924	120.856	115.413	30.629
65.000	313.873	303.535	289.355	280.689	227.021	299.358	306.854	305.803	295.800	246.000	298.045	303.750	106.126	115.818	130.453	138.451	192.142	120.116	112.834	113.431	122.837	173.162	120.808	115.460	43.894
66.000	313.419	303.583	289.498	280.235	226.639	299.429	306.567	305.684	296.326	245.786	297.448	303.655	106.126	116.057	130.525	138.689	192.476	119.996	112.691	113.288	122.455	173.043	120.904	115.389	51.610
67.000	313.992	304.132	289.689	280.402	226.496	299.358	306.878	305.660	296.254	246.191	297.782	303.488	106.150	115.866	130.405	138.594	192.500	119.972	112.596	113.407	122.264	173.043	120.975	115.389	41.819
68.000	313.825	303.321	289.116	280.116	226.663	299.310	307.045	305.541	296.087	245.786	297.663	303.893	105.911	115.938	130.310	138.689	192.619	119.972	112.810	113.336	122.217	173.091	120.880	115.365	29.230
69.000	313.682	304.204	289.307	280.044	226.949	299.310	306.734	305.469	296.636	245.618	297.830	303.798	105.911	115.962	130.357	138.618	192.572	120.044	112.643	113.407	122.026	173.115	120.713	115.508	31.441
70.000	313.705	303.703	289.140	280.378	226.448	299.501	306.902	305.398	296.755	246.120	297.877	303.440	106.102	115.890	130.429	138.665	192.572	119.758	112.428	113.312	121.763	173.282	120.856	115.365	45.112
71.000	313.682	303.535	289.092	280.569	226.567	299.310	306.830	305.684	296.922	245.499	297.567	304.037	106.102	115.818	130.334	138.785	192.643	119.901	112.428	113.336	121.739	173.282	120.808	115.341	51.429
72.000	313.992	303.941	288.925	280.211	226.591	299.190	306.878	305.565	297.113	246.239	298.164	303.703	105.648	115.890	130.286	138.618	192.643	119.758	112.333	113.288	121.500	173.401	120.856	115.413	41.322
73.000	314.255	304.132	289.307	280.378	226.567	299.453	306.997	305.517	297.066	245.690	297.567	303.416	106.150	116.033	130.381	138.713	192.763	119.805	112.357	113.383	121.405	173.234	120.832	115.293	29.140
74.000	313.801	303.989	289.187	280.307	226.854	299.214	306.973	305.589	297.424	245.690	298.116	303.703	105.863	115.914	130.214	138.785	192.763	119.805	112.476	113.288	121.238	173.210	120.856	115.293	31.757
75.000	313.896	303.703	289.355	280.187	226.233	299.644	307.116	306.042	297.734	245.547	297.495	303.488	105.601	115.771	130.095	138.594	192.715	119.877	112.261	113.312	120.927	173.473	120.760	115.365	45.157
76.000	313.968	303.583	289.116	280.044	226.567	299.429	307.236	305.875	297.591	245.738	298.021	303.703	106.102	115.747	130.238	138.737	192.763	119.805	112.548	113.360	120.975	173.377	120.784	115.341	51.384
77.000	313.300	303.679	289.331	280.235	226.472	299.214	306.878	305.517	297.949	245.690	297.877	303.726	105.768	115.818	130.214	138.761	192.763	119.614	112.381	113.455	120.975	173.377	120.617	115.246	41.683
78.000	313.873	303.703	289.164	280.020	226.138	299.238	307.379	305.589	298.068	245.595	297.877	303.870	105.720	115.771	130.286	138.713	192.763	119.710	112.190	113.192	120.689	173.353	120.856	115.651	28.824
79.000	313.562	303.535	289.140	280.116	225.971	299.310	307.045	305.302	297.806	245.499	298.403	304.156	105.863	115.938	130.357	138.832	192.810	119.614	112.166	113.240	120.689	173.521	120.832	115.484	32.208
80.000	314.135	303.774	289.665	279.853	226.400	299.668	306.878	305.565	298.307	245.738	297.949	303.822	105.935	116.009	130.143	138.880	192.858	119.662	112.023	113.312	120.474	173.449	120.784	115.341	46.421
81.000	313.514	304.275	289.187	280.402	226.544	299.620	307.069	305.565	298.331	245.571	297.925	303.679	105.768	116.009	130.286	138.594	192.810	119.829	112.285	113.455	120.522	173.497	120.736	115.269	51.113
82.000	313.777	303.512	289.546	280.402	226.138	299.334	307.236	305.374	298.546	245.356	297.448	303.679	105.983	115.938	130.381	138.904	192.810	119.590	112.237	113.360	120.402	173.473	120.689	115.389	40.375
83.000	313.658	303.965	289.068	280.092	226.639	299.525	307.021	305.732	298.641	245.404	297.830	303.893	105.839	116.009	130.310	138.832	192.906	119.710	112.118	113.336	120.307	173.473	120.808	115.293	28.599
84.000	314.422	303.893	289.235	280.354	226.424	299.572	307.809	305.565	298.522	245.714	297.901	303.512	105.839	115.938	130.286	138.928	192.906	119.495	112.046	113.383	120.259	173.616	120.808	115.365	33.020
85.000	313.658	303.726	289.546	280.068	226.520	299.453	306.949	305.732	298.498	245.260	297.639	303.631	105.887	115.866	130.357	138.928	192.954	119.567	111.951	113.360	120.259	173.616	120.856	115.365	46.556
86.000	313.825	303.607	289.140	280.092	226.138	299.381	307.188	305.780	298.689	245.857	298.092	303.726	105.887	116.009	130.262	138.952	192.954	119.614	112.094	113.312	120.283	173.640	120.808	115.317	50.662
87.000	313.467	303.965	290.166	280.163	226.281	299.095	306.997	305.708	298.522	245.332	297.901	303.989	106.006	116.033	130.214	138.904	192.906	119.662	112.190	113.431	120.187	173.568	120.665	115.341	39.833
88.000	313.777	303.655	289.355	279.925	226.400	299.596	307.021	305.636	299.453	245.475	298.116	304.013	105.983	115.890	130.357	138.809	193.001	119.519	112.142	113.383	119.972	173.759	120.760	115.293	28.193
89.000	314.016	303.297	289.020	280.068	226.114	299.859	307.737	306.066	298.952	245.380	297.877	303.774	105.911	115.866	130.262	138.856	192.954	119.590	112.070	113.383	119.949	173.712	120.784	115.293	34.058
