-----------------------------------------------------
BloodHound 307 VOC Analyser V2017.1
RoboScientific Ltd 
Espace North
Wisbech Road
Littleport
Cambridgeshire, UK
CB6 1RA 
-----------------------------------------------------
Date = 03/03/2021
Time = 12:51:14
Data is protected by RoboScientific Limited
-----------------------------------------------------
Name of the experiment = "5889P"
-----------------------------------------------------
Repeat No. = 4/4
-----------------------------------------------------
Experimental Time (in sec) and Flow Profile :
-----------------------------------------------------
Baseline = 2.00
Absorb = 4.00
Pause = 1.00
Desorb = 5.00
Flush = 18.00
Wait = 5.00
Higher Flow (V) = 4.00
Medium Flow (V) = 3.00
Low Flow (V) = 1.00
-----------------------------------------------------
Total Profile Time = 35 in sec
-----------------------------------------------------
Acquired data point per second = 4
--------------------------------------------------
Total data point stored  = 120
-----------------------------------------------------
Acquired sensor responses from 24 sensors
-----------------------------------------------------

Data Points	 Sen-1	 Sen-2	 Sen-3	 Sen-4	 Sen-5	 Sen-6	 Sen-7	 Sen-8	 Sen-9	 Sen-10	 Sen-11	 Sen-12	 Sen-13	 Sen-14	 Sen-15	 Sen-16	 Sen-17	 Sen-18	 Sen-19	 Sen-20	 Sen-21	 Sen-22	 Sen-23	 Sen-24	Humidity (%r.h.)
0.000	313.801	303.870	289.474	280.139	226.329	300.384	308.286	306.329	304.323	251.205	298.665	304.681	106.078	115.484	130.166	138.856	192.786	118.922	111.187	112.739	115.293	167.743	120.020	114.840	28.057
1.000	313.873	304.156	289.617	280.283	226.591	300.169	308.238	306.448	304.228	251.324	298.594	304.443	106.126	115.651	130.095	139.023	192.858	118.755	111.044	112.715	115.413	167.767	120.283	114.935	38.525
2.000	313.634	304.084	289.784	279.829	226.066	299.954	308.143	306.209	304.371	251.396	298.546	304.395	105.959	115.532	130.214	139.071	192.858	118.874	111.115	112.763	115.317	167.743	120.354	114.864	50.933
3.000	313.944	304.084	289.474	279.972	226.663	300.885	308.477	306.138	304.252	251.181	298.808	304.443	105.744	115.556	130.095	139.167	192.691	118.850	111.092	112.643	115.269	167.767	120.092	114.625	45.518
4.000	313.801	304.371	289.641	280.330	226.185	300.193	308.095	306.329	304.801	251.372	298.403	304.204	105.601	115.747	130.095	139.143	192.882	118.827	111.068	112.810	115.436	167.767	120.140	114.649	31.577
5.000	314.278	303.941	289.522	280.139	226.472	300.790	308.597	306.424	304.275	251.372	298.617	304.586	105.792	115.436	129.999	138.952	192.810	118.874	111.068	112.787	115.293	167.767	120.044	114.625	29.321
6.000	314.016	304.180	289.665	280.259	226.305	300.145	308.095	306.233	304.657	251.038	298.594	304.443	105.768	115.580	130.047	139.071	192.763	118.922	111.211	112.715	115.246	167.767	120.211	114.792	43.217
7.000	313.944	304.228	289.808	279.996	226.567	300.360	308.477	306.400	304.729	251.467	298.379	304.371	106.006	115.484	130.286	139.191	192.810	118.874	111.139	112.787	115.341	167.791	120.092	114.625	51.564
8.000	313.634	304.013	289.498	280.259	226.329	300.217	308.358	306.042	304.466	251.444	298.761	304.347	105.815	115.627	130.143	139.095	192.834	118.659	111.187	112.810	115.484	167.767	120.068	114.649	42.225
9.000	314.087	304.634	289.880	279.853	226.376	300.074	308.334	306.400	304.252	250.871	298.307	304.252	105.648	115.604	130.310	139.023	192.858	118.755	111.163	112.715	115.269	167.863	120.163	114.720	29.140
10.000	313.992	304.275	289.164	279.948	226.615	300.599	308.191	306.376	304.825	251.802	298.737	304.920	106.126	115.222	130.023	138.952	192.786	118.827	111.139	112.572	115.150	167.290	119.925	114.505	31.847
11.000	311.796	304.562	289.402	280.593	226.973	300.981	308.406	306.424	303.130	252.637	299.167	305.207	107.892	115.078	130.119	138.737	191.927	118.588	111.235	112.381	116.224	166.573	119.352	113.765	45.925
12.000	306.973	304.132	289.569	280.641	228.215	300.551	308.024	306.902	299.907	252.780	299.358	304.872	112.524	115.771	129.737	138.307	191.044	118.421	111.259	112.046	119.018	165.929	119.161	114.219	51.339
13.000	299.405	302.533	289.832	280.927	229.074	300.336	308.000	306.949	295.036	253.234	298.570	303.846	120.187	117.394	129.784	137.901	190.328	118.659	111.283	112.357	123.697	165.618	119.996	115.341	40.285
14.000	289.737	300.384	289.880	281.405	229.456	299.883	307.713	306.902	288.782	253.712	297.424	301.984	130.095	119.065	129.713	137.830	189.635	119.209	111.569	112.548	129.450	165.451	121.047	117.036	28.148
15.000	279.447	297.901	289.737	281.261	230.172	299.811	307.642	306.352	282.718	253.688	295.848	299.978	140.599	121.238	129.426	137.376	189.014	119.925	112.142	112.954	135.108	165.881	122.718	118.994	34.870
16.000	267.964	295.657	290.238	281.643	230.650	297.782	306.448	305.398	277.394	252.422	293.891	297.519	151.557	124.246	129.331	137.137	188.394	121.166	112.619	113.479	140.527	166.215	124.652	121.190	48.045
17.000	257.842	292.673	290.286	282.025	231.151	296.564	306.066	304.825	272.524	252.231	291.241	295.108	162.037	127.158	129.522	137.185	187.797	122.575	113.360	114.410	145.899	166.836	127.660	124.389	48.632
18.000	246.764	289.164	289.760	281.500	231.581	294.559	305.087	304.180	267.630	251.133	288.280	292.028	173.353	130.381	129.474	136.994	187.582	124.771	114.625	115.269	151.294	167.695	130.739	127.206	36.404
19.000	237.287	285.869	290.310	281.763	231.891	292.816	303.703	302.628	262.879	250.083	284.079	289.020	182.402	134.034	129.737	137.161	187.176	126.514	115.484	116.272	155.950	168.746	134.583	130.310	29.862
20.000	228.621	281.476	289.665	281.548	232.106	290.787	303.010	301.387	258.271	248.555	279.853	285.583	190.900	137.758	129.880	137.257	187.009	128.567	116.726	117.442	160.462	169.916	138.594	133.676	38.164
21.000	221.196	277.227	289.617	281.429	232.202	288.137	301.363	300.480	253.735	247.313	274.911	281.691	198.564	141.960	130.095	137.639	186.985	131.002	118.301	118.946	165.213	171.444	143.464	137.209	47.684
22.000	218.570	273.144	289.068	281.094	232.106	285.797	299.405	298.546	249.820	245.165	270.089	278.230	201.476	146.209	130.262	137.878	186.937	133.580	120.163	120.665	169.796	173.544	148.859	140.981	44.436
23.000	222.915	268.847	288.805	280.307	232.082	282.861	296.946	296.373	245.595	243.064	264.622	274.314	197.012	150.435	130.644	138.355	186.723	136.517	122.408	122.551	174.667	175.860	154.064	144.538	34.825
24.000	227.952	265.242	288.424	280.020	232.082	279.972	294.607	294.774	241.775	240.128	259.131	270.351	191.832	154.446	131.050	138.832	186.699	139.286	124.699	124.317	178.486	178.152	159.435	148.072	33.111
25.000	232.297	260.348	287.827	279.041	231.891	276.654	292.076	292.816	238.003	237.501	253.902	267.296	187.797	158.934	131.527	139.692	187.009	142.390	127.325	126.466	181.972	181.327	165.189	152.130	40.465
26.000	231.796	260.969	287.230	278.898	232.058	276.439	290.787	292.864	236.761	235.042	252.422	267.391	188.465	158.719	131.790	139.620	187.152	143.010	128.567	126.394	183.691	183.715	166.741	151.653	45.970
27.000	230.363	261.972	287.540	278.588	231.843	276.917	291.073	293.461	236.451	234.541	252.589	268.895	190.160	157.430	131.957	139.525	187.128	142.199	128.376	125.917	183.738	184.526	166.430	150.745	41.954
28.000	229.289	262.831	287.564	279.184	231.939	277.131	291.026	293.700	236.547	233.586	252.780	269.778	191.139	157.048	131.981	139.477	187.272	141.793	128.328	125.511	183.858	185.338	166.263	150.005	34.194
29.000	228.835	263.213	286.728	279.566	231.820	278.421	291.694	294.201	236.356	233.419	252.924	269.659	191.139	156.547	132.172	139.382	187.343	141.411	128.257	125.129	183.882	185.696	166.430	149.719	34.554
30.000	234.064	260.372	287.755	279.495	231.748	276.702	289.904	292.912	235.019	232.416	249.414	267.200	185.983	158.791	132.172	139.596	187.296	142.533	129.259	125.989	184.884	186.723	168.627	151.653	42.676
31.000	247.695	266.818	287.397	278.516	231.724	273.670	287.063	290.859	233.586	230.220	244.783	272.452	170.035	151.820	132.482	139.955	187.176	145.517	132.315	128.376	186.484	188.752	174.022	146.472	45.789
32.000	284.556	283.291	286.943	278.182	231.533	270.256	283.553	289.569	232.774	229.814	250.489	284.484	133.652	135.968	132.912	140.790	187.391	149.003	135.872	129.188	187.176	189.014	168.101	134.440	40.826
33.000	298.617	291.933	286.108	276.702	231.414	268.298	281.238	291.599	233.204	231.629	260.921	291.432	120.713	127.516	133.389	141.506	187.701	150.865	138.164	127.803	186.985	187.152	157.931	127.731	31.261
34.000	305.899	296.684	285.415	277.251	231.008	268.752	281.500	294.010	234.493	235.114	272.142	295.299	114.434	122.861	134.129	141.912	187.892	150.626	138.522	125.225	186.054	184.192	146.949	123.840	34.329
35.000	308.549	299.023	285.248	277.060	230.459	270.924	283.100	296.994	236.690	237.692	279.734	297.639	110.399	120.331	134.631	141.864	188.251	147.785	136.397	122.527	183.237	180.707	138.665	121.429	46.466
36.000	310.793	300.814	285.081	277.275	230.578	275.150	285.917	298.808	241.106	241.011	285.702	299.429	108.442	118.564	134.702	141.554	188.513	143.607	133.389	120.092	178.391	177.412	132.983	119.734	49.308
37.000	312.488	302.007	284.938	277.585	230.698	279.805	289.402	300.957	247.027	244.496	289.116	300.360	107.725	117.728	134.798	141.029	188.418	139.334	130.143	118.325	172.948	173.998	129.307	118.731	37.532
38.000	312.560	302.652	285.654	278.755	230.960	284.007	292.243	302.151	252.757	247.313	291.742	301.291	107.272	116.941	134.846	140.527	188.537	135.323	127.230	116.941	166.764	171.109	126.848	117.848	28.509
39.000	313.133	303.082	285.702	278.898	230.936	287.469	295.036	303.392	258.343	249.940	293.556	302.079	106.508	116.773	134.583	139.883	188.680	131.885	124.317	115.818	160.605	169.032	125.153	117.275	36.810
40.000	313.419	303.130	285.248	279.017	230.530	289.928	297.281	304.228	263.189	251.205	294.535	302.318	106.293	116.391	133.891	139.382	188.680	129.402	122.145	115.007	155.425	167.528	123.864	116.750	49.489
41.000	313.491	303.034	285.869	279.853	230.172	291.479	299.214	304.753	267.749	251.993	296.039	303.201	106.412	116.224	133.724	139.167	188.823	127.230	119.877	114.386	150.554	166.693	123.124	116.368	47.865
42.000	313.873	303.297	285.941	280.402	230.363	293.198	300.766	304.992	272.142	252.446	296.588	303.440	106.126	116.081	133.294	138.832	188.991	125.965	118.659	114.004	146.878	166.191	122.360	116.200	33.787
43.000	313.682	303.846	286.800	280.235	229.910	294.774	301.864	305.254	274.529	252.852	296.922	303.273	106.221	115.842	132.721	138.355	189.134	124.819	117.633	113.670	143.488	166.024	121.858	115.866	28.779
44.000	313.586	304.084	286.967	280.307	229.743	295.227	302.676	305.302	277.275	253.353	297.639	303.703	106.174	115.818	132.482	138.379	189.373	123.935	116.606	113.264	140.504	165.977	121.548	115.604	40.014
45.000	313.896	303.989	287.636	280.736	229.480	296.087	303.535	305.708	280.044	252.995	297.304	303.774	106.006	115.699	131.957	138.212	189.564	123.124	115.962	113.264	137.997	165.881	121.262	115.436	51.249
46.000	313.443	303.893	287.683	280.617	229.456	296.731	304.061	305.756	281.739	253.735	298.068	303.917	106.102	115.604	131.885	138.379	189.731	122.766	115.341	113.121	135.681	165.666	121.095	115.317	44.661
47.000	314.111	303.941	287.707	280.665	229.384	296.779	304.443	306.114	283.911	253.115	297.997	304.180	105.720	115.580	131.623	138.164	189.898	122.217	115.007	113.240	133.580	165.690	121.071	115.150	30.990
48.000	313.729	303.750	288.233	280.808	229.050	297.161	305.159	306.257	286.347	253.115	298.212	304.132	106.245	115.675	131.599	138.069	189.969	121.787	114.482	112.930	131.575	165.738	120.808	115.198	29.772
49.000	313.801	304.084	288.256	280.927	228.859	297.997	305.398	306.161	287.636	253.043	297.686	304.228	105.839	115.484	131.217	138.260	190.328	121.620	114.171	113.001	130.023	165.786	120.880	114.553	43.217
50.000	313.586	304.204	288.447	280.736	228.525	297.830	305.565	306.329	289.283	252.900	298.045	304.156	105.983	115.675	131.169	138.212	190.638	121.381	113.956	112.978	128.543	165.762	120.593	115.031	51.564
51.000	313.729	303.941	288.424	280.808	228.525	298.331	305.565	305.947	290.596	252.566	298.021	304.013	106.102	115.627	131.026	138.212	190.781	120.904	113.574	112.930	127.779	165.929	120.641	115.055	42.180
52.000	313.562	303.774	288.424	280.784	228.406	298.426	305.970	306.090	291.217	253.139	298.212	304.466	105.959	115.460	130.978	138.236	190.853	120.784	113.479	113.073	126.633	166.024	120.426	114.983	29.005
53.000	313.801	304.443	289.164	280.903	228.286	298.594	305.994	306.114	292.458	252.327	297.830	304.084	106.054	115.627	130.763	138.331	190.924	120.736	113.240	112.834	125.678	166.024	120.617	114.935	31.847
54.000	313.133	304.419	288.591	280.235	228.048	298.761	306.138	305.923	293.341	252.852	298.355	304.084	105.863	115.604	130.644	138.236	191.187	120.522	113.073	112.787	125.057	166.191	120.402	115.007	46.285
55.000	314.207	304.132	288.949	280.641	228.286	298.880	306.472	306.448	294.296	252.733	298.068	304.108	105.959	115.365	130.620	138.307	191.068	120.402	112.906	112.858	124.270	166.239	120.450	114.983	50.843
56.000	313.968	304.132	289.283	280.569	227.952	299.405	306.567	306.281	295.013	252.757	297.925	304.061	105.983	115.604	130.644	138.570	191.450	120.283	112.882	112.834	123.530	166.120	120.474	114.911	39.788
57.000	313.395	304.228	289.164	280.951	227.737	299.262	306.472	306.233	295.299	252.255	297.949	304.156	105.935	115.460	130.405	138.260	191.473	120.187	112.739	112.834	123.124	166.406	120.450	114.887	28.148
58.000	313.324	303.941	289.474	280.378	227.451	299.405	306.639	306.018	295.538	252.303	298.212	304.610	105.720	115.460	130.357	138.427	191.497	120.068	112.763	112.882	122.670	166.335	120.283	114.911	34.464
59.000	313.801	304.395	289.187	280.569	227.403	299.405	306.973	306.424	296.493	252.303	298.379	304.299	105.935	115.580	130.405	138.451	191.569	120.020	112.619	112.834	122.288	166.359	120.378	114.959	48.496
60.000	313.873	304.084	289.235	279.901	227.594	299.620	306.973	306.352	296.994	252.398	298.379	304.490	105.792	115.580	130.381	138.355	191.664	119.853	112.452	112.787	121.739	166.335	120.426	114.864	49.308
61.000	313.968	304.562	289.235	280.689	227.498	299.453	306.902	305.899	297.304	252.398	298.379	304.347	105.863	115.508	130.596	138.570	191.760	119.829	112.357	112.763	121.572	166.478	120.402	114.864	36.179
62.000	313.944	303.893	289.020	280.617	227.260	299.668	307.331	306.520	297.758	252.637	298.522	304.466	105.983	115.484	130.429	138.451	191.641	119.758	112.548	112.930	121.285	166.526	120.354	114.840	28.012
63.000	313.729	304.132	289.617	280.402	227.045	299.501	306.997	306.114	297.686	252.351	298.546	304.801	105.768	115.365	130.381	138.594	191.808	119.734	112.046	112.763	120.951	166.669	120.402	114.840	38.029
64.000	313.395	303.965	289.402	280.450	227.546	299.429	307.021	305.803	298.355	252.733	298.570	304.419	105.983	115.580	130.310	138.522	191.760	119.614	112.214	112.882	120.593	166.597	120.283	114.840	50.617
65.000	313.944	303.631	289.426	280.689	227.451	299.931	307.355	306.161	298.808	252.351	298.403	304.275	106.030	115.651	130.357	138.546	191.927	119.495	112.046	112.739	120.450	166.717	120.569	114.935	47.007
66.000	313.610	304.180	289.665	280.426	227.427	299.405	307.164	306.209	298.737	252.279	298.617	304.586	105.935	115.317	130.357	138.594	191.927	119.638	112.214	112.954	120.092	166.669	120.331	114.792	32.659
67.000	313.562	304.514	289.402	280.092	227.093	299.286	307.236	306.161	299.071	252.303	298.474	304.466	105.696	115.460	130.357	138.570	192.023	119.447	112.046	112.715	119.996	166.741	120.259	114.744	28.689
68.000	314.231	303.679	288.996	280.259	227.069	299.620	307.880	306.734	299.644	252.494	298.403	304.466	105.887	115.222	130.262	138.809	192.023	119.399	111.808	112.715	119.471	166.764	120.474	114.840	40.826
69.000	314.135	303.655	289.044	280.163	226.902	299.907	307.546	306.448	299.549	252.088	298.188	304.347	106.150	115.508	130.357	138.570	192.070	119.471	111.855	112.619	119.376	166.717	120.402	114.935	51.429
70.000	313.610	303.965	289.259	280.426	226.830	299.907	307.284	306.329	299.787	252.279	298.594	304.490	105.815	115.604	130.381	138.689	192.070	119.232	111.855	112.739	119.256	166.788	120.402	114.935	44.571
71.000	314.111	304.013	288.996	280.092	227.116	299.954	307.498	306.352	299.883	251.778	298.164	304.634	106.054	115.556	130.214	138.713	192.214	119.304	111.832	112.882	119.376	166.884	120.331	114.887	30.629
72.000	313.825	303.870	289.355	280.020	227.116	299.883	307.594	306.257	300.408	252.303	298.594	304.299	106.030	115.341	130.071	138.570	192.118	119.447	111.832	112.715	118.922	166.764	120.426	114.816	30.043
73.000	313.347	304.347	289.737	280.187	227.093	299.811	307.331	306.520	300.217	251.802	298.092	304.228	106.054	115.604	130.143	138.641	192.190	119.256	111.760	112.810	118.779	166.693	120.331	114.864	43.353
74.000	313.777	304.371	289.355	279.948	227.021	299.692	307.522	306.663	300.360	251.778	298.188	304.419	106.030	115.413	130.143	138.809	192.190	119.328	111.832	112.619	118.731	166.788	120.378	114.935	51.519
75.000	313.610	304.204	289.713	280.569	227.045	300.145	307.355	306.376	300.408	251.802	298.259	304.419	106.126	115.532	130.334	138.761	192.214	119.137	111.832	112.906	118.588	166.764	120.259	114.768	41.728
76.000	313.801	304.299	289.569	280.498	226.544	299.835	307.618	306.376	301.315	252.231	298.474	304.872	105.935	115.413	130.190	138.641	192.285	119.376	112.023	112.810	118.516	166.908	120.378	114.720	28.779
77.000	313.801	304.992	289.498	280.521	226.973	299.859	307.379	306.042	300.838	251.945	298.570	304.347	105.792	115.580	130.286	138.618	192.452	119.256	111.688	112.763	118.397	166.860	120.211	114.768	33.246
78.000	313.491	304.037	289.259	279.901	226.902	299.931	307.856	306.114	300.671	251.849	298.761	304.275	105.839	115.508	130.381	138.952	192.404	119.161	111.569	112.643	118.397	167.075	120.378	114.840	47.594
79.000	313.992	304.204	289.546	280.521	226.591	300.074	307.761	306.257	301.267	251.945	298.307	304.252	106.078	115.484	130.286	138.856	192.214	119.185	111.712	112.667	118.134	166.860	120.283	114.792	50.256
80.000	313.825	304.443	289.498	280.402	227.236	299.883	307.666	305.899	301.148	252.040	298.426	304.204	105.839	115.580	130.095	138.689	192.357	119.161	111.664	112.715	117.967	166.955	120.402	114.816	38.525
81.000	313.586	304.419	289.307	279.972	226.735	299.644	307.546	306.281	301.435	251.802	298.235	304.490	105.911	115.389	130.119	138.832	192.500	119.232	111.664	112.882	117.919	166.812	120.283	114.816	28.012
82.000	313.634	304.108	289.689	280.235	226.973	299.787	307.427	306.257	301.936	252.136	298.092	304.729	105.792	115.508	130.190	138.928	192.333	119.089	111.569	112.763	117.824	167.027	120.307	114.792	35.141
83.000	313.300	303.917	289.068	279.948	226.782	299.931	307.331	306.448	301.267	251.921	298.880	304.443	105.863	115.484	130.214	138.809	192.404	119.089	111.521	112.739	117.657	166.955	120.378	114.792	49.444
84.000	313.992	304.275	289.474	280.044	226.687	300.098	307.833	306.209	301.745	252.303	298.617	304.419	105.625	115.532	130.047	138.785	192.381	119.209	111.617	112.834	117.800	166.979	120.235	114.649	48.541
85.000	313.968	303.965	289.665	280.259	226.806	300.026	307.713	306.400	301.530	251.778	298.307	304.466	105.983	115.675	130.238	138.832	192.476	119.113	111.593	112.739	117.561	166.908	120.187	114.768	34.554
86.000	313.849	304.514	289.784	280.235	226.806	300.026	307.618	306.329	302.031	251.539	298.188	304.419	105.792	115.460	130.190	138.713	192.333	119.018	111.497	112.715	117.537	167.099	120.211	114.696	28.283
87.000	313.992	304.228	289.068	280.092	226.520	299.763	307.689	306.090	301.482	251.826	298.379	304.538	105.887	115.436	130.143	138.976	192.524	119.209	111.712	112.858	117.466	166.932	120.116	114.696	39.247
88.000	314.087	304.323	289.402	280.116	226.878	299.907	307.880	306.400	301.626	251.802	298.259	304.204	106.054	115.436	130.166	138.737	192.548	119.089	111.497	112.691	117.418	167.051	120.283	114.720	51.249
89.000	313.849	304.371	289.378	280.187	226.830	300.241	307.856	306.329	302.031	251.969	298.689	304.562	105.720	115.508	130.238	138.952	192.452	119.113	111.450	112.810	117.275	167.123	120.140	114.768	45.834
