-----------------------------------------------------
BloodHound 307 VOC Analyser V2017.1
RoboScientific Ltd 
Espace North
Wisbech Road
Littleport
Cambridgeshire, UK
CB6 1RA 
-----------------------------------------------------
Date = 08/04/2022
Time = 12:14:51
Data is protected by RoboScientific Limited
-----------------------------------------------------
Name of the experiment = "47b_Day 40"
-----------------------------------------------------
Repeat No. = 4/4
-----------------------------------------------------
Experimental Time (in sec) and Flow Profile :
-----------------------------------------------------
Baseline = 2.00
Absorb = 4.00
Pause = 1.00
Desorb = 5.00
Flush = 20.00
Wait = 5.00
Higher Flow (V) = 4.00
Medium Flow (V) = 3.00
Low Flow (V) = 1.00
-----------------------------------------------------
Total Profile Time = 37 in sec
-----------------------------------------------------
Acquired data point per second = 4
--------------------------------------------------
Total data point stored  = 128
-----------------------------------------------------
Acquired sensor responses from 24 sensors
-----------------------------------------------------

Data Points	 Sen-1	 Sen-2	 Sen-3	 Sen-4	 Sen-5	 Sen-6	 Sen-7	 Sen-8	 Sen-9	 Sen-10	 Sen-11	 Sen-12	 Sen-13	 Sen-14	 Sen-15	 Sen-16	 Sen-17	 Sen-18	 Sen-19	 Sen-20	 Sen-21	 Sen-22	 Sen-23	 Sen-24	Humidity (%r.h.)
0.000	312.846	306.854	294.344	308.143	315.019	315.615	315.759	301.554	288.471	311.533	230.507	277.346	106.532	112.667	125.248	110.423	103.762	103.309	103.524	117.155	130.310	107.367	187.821	141.888	45.157
1.000	312.989	306.591	294.082	308.167	315.377	315.926	315.687	301.888	288.782	311.724	230.483	277.585	106.412	112.667	125.010	110.447	103.715	103.357	103.571	117.132	130.477	107.200	187.749	141.936	46.827
2.000	312.965	306.543	294.105	308.286	315.186	315.759	316.093	301.721	288.686	311.700	230.220	277.251	106.269	112.930	124.962	110.566	103.739	103.261	103.452	117.132	130.453	107.248	187.797	141.960	40.194
3.000	313.204	306.520	294.296	308.382	315.400	315.854	315.591	301.626	288.710	311.605	230.650	277.346	106.388	112.906	125.034	110.495	103.786	103.452	103.428	117.084	130.357	107.391	187.749	141.721	33.923
4.000	312.751	306.663	294.631	307.928	314.947	315.926	315.830	301.769	288.400	311.652	230.459	277.752	106.651	112.906	124.890	110.542	103.667	103.237	103.476	117.084	130.405	107.200	187.797	141.626	37.713
5.000	313.133	306.663	294.416	308.143	314.971	315.711	315.663	301.626	288.543	311.796	230.387	277.704	106.317	112.596	124.723	110.471	103.739	103.333	103.500	116.988	130.334	107.248	187.701	141.697	45.744
6.000	313.419	307.069	294.678	308.358	315.210	315.615	315.926	301.936	288.686	311.390	230.125	277.561	106.365	112.643	124.819	110.471	103.810	103.380	103.428	117.108	130.405	107.272	187.797	141.554	46.376
7.000	312.894	306.687	294.822	308.525	315.472	315.735	315.615	301.530	288.352	311.652	230.220	277.824	106.412	112.739	124.723	110.542	103.882	103.333	103.500	117.036	130.405	107.272	187.916	141.530	39.247
8.000	313.204	306.567	294.607	308.310	314.947	315.759	315.973	301.578	288.376	311.748	230.244	277.728	106.484	112.810	124.914	110.542	103.667	103.189	103.357	117.155	130.525	107.224	187.749	141.363	33.742
9.000	312.965	306.973	294.368	308.095	314.995	315.759	315.806	301.458	288.543	311.748	230.292	278.086	106.412	112.691	124.676	110.495	103.691	103.333	103.428	117.155	130.357	107.176	187.749	141.363	38.254
10.000	311.366	305.063	294.249	308.047	314.971	315.615	315.568	301.578	288.686	311.438	230.363	275.436	107.081	113.861	124.867	110.495	103.691	103.285	103.500	117.108	130.214	107.534	188.060	142.986	46.105
11.000	299.262	272.118	292.458	307.403	315.066	315.782	315.950	300.790	289.402	307.833	228.215	266.341	120.975	150.148	126.323	111.163	103.786	103.213	103.309	118.039	129.450	111.163	189.826	155.162	40.420
12.000	270.160	262.807	287.492	305.875	314.398	315.472	315.830	297.877	289.904	293.700	226.376	293.103	150.339	156.785	131.742	112.667	104.025	103.380	103.500	120.689	128.853	125.607	191.473	127.469	43.533
13.000	240.319	289.140	279.519	303.249	314.469	315.305	315.639	294.392	290.286	278.397	225.302	305.947	177.961	128.710	139.573	115.174	104.335	103.404	103.643	124.413	128.471	140.074	192.858	113.073	49.940
14.000	239.101	304.753	270.113	299.740	313.944	314.971	315.400	290.429	290.357	265.887	224.443	314.350	178.653	112.930	148.430	118.373	104.646	103.739	103.810	128.257	128.471	152.202	193.980	105.219	42.044
15.000	265.266	314.422	260.038	294.654	313.395	314.804	315.186	286.132	290.071	251.706	223.750	319.674	154.852	103.834	158.313	123.506	105.099	103.953	103.977	132.243	128.830	166.932	194.816	100.659	30.178
16.000	284.461	320.366	250.608	289.665	313.013	314.469	314.589	281.739	289.259	235.783	223.225	323.494	134.989	98.701	168.889	129.044	105.768	104.479	104.288	136.779	129.092	184.025	195.174	96.815	33.381
17.000	297.018	324.353	241.560	283.362	312.130	313.729	314.159	276.511	288.686	221.363	222.270	325.642	120.665	94.714	179.083	135.466	106.269	105.004	104.932	141.697	129.904	197.203	196.033	94.428	47.910
18.000	308.167	327.003	235.878	276.129	311.581	312.918	313.538	271.593	288.328	237.931	221.649	327.289	110.686	92.422	186.365	142.246	107.081	105.839	105.529	146.758	130.596	179.322	196.487	93.497	53.144
19.000	315.377	329.056	237.430	268.728	310.841	311.581	312.488	266.150	287.492	254.953	221.578	328.030	103.691	90.131	182.043	149.480	107.797	106.866	106.317	152.202	131.312	163.255	196.749	91.062	41.007
20.000	320.008	329.987	244.496	261.447	309.790	310.148	311.700	260.611	286.776	267.749	221.435	329.653	99.298	89.032	171.706	157.024	108.847	108.274	107.224	158.003	132.148	151.151	197.060	90.560	28.554
21.000	323.350	331.205	251.420	254.189	308.501	308.477	310.626	255.096	285.559	277.728	221.530	330.083	95.693	87.863	162.133	164.616	110.113	110.232	108.227	163.709	133.007	140.957	197.418	90.155	33.652
22.000	325.857	332.040	258.534	246.717	307.140	306.114	308.979	249.701	284.413	285.081	221.029	330.441	94.141	87.218	152.775	172.064	111.688	112.548	110.017	169.701	134.249	132.888	197.609	89.582	49.218
23.000	327.719	332.852	264.550	239.626	305.374	303.512	306.949	244.138	283.601	291.384	220.862	331.658	90.704	87.170	145.326	179.274	113.073	114.887	111.808	174.977	135.204	126.753	197.466	88.698	53.279
24.000	329.271	333.043	269.349	232.607	303.893	300.575	304.466	239.077	282.503	295.777	220.790	331.754	89.820	86.359	139.501	186.054	114.601	117.800	114.314	180.420	136.326	122.049	197.848	88.269	40.014
25.000	330.107	333.329	273.359	226.806	301.960	297.591	301.649	234.088	281.142	299.358	221.029	331.849	88.674	86.024	135.633	192.261	116.415	120.784	117.060	185.410	137.543	119.399	197.752	87.958	28.102
26.000	330.345	333.616	274.935	225.230	300.647	296.397	299.859	233.706	280.927	299.477	220.599	331.969	88.269	86.693	133.556	194.553	117.848	121.906	118.850	186.388	137.925	119.113	197.633	88.579	34.735
27.000	331.061	333.807	275.603	225.374	300.527	296.731	299.859	234.159	280.975	298.594	220.838	331.945	88.841	86.144	132.960	194.100	118.039	121.858	119.352	185.792	137.782	119.829	197.585	87.839	50.030
28.000	330.560	333.831	276.129	225.947	300.289	296.875	299.286	235.401	281.094	298.426	220.886	332.446	88.579	85.929	132.243	193.192	118.421	121.476	119.567	185.051	137.615	120.283	197.752	88.770	53.008
29.000	330.560	333.568	276.773	227.116	300.145	297.495	299.692	235.735	281.381	297.806	220.838	332.613	88.388	85.929	132.602	192.500	118.397	121.572	119.805	184.359	137.472	120.808	197.609	88.459	38.976
30.000	331.420	334.499	277.633	225.732	299.549	296.015	298.140	234.756	281.261	300.217	221.005	331.825	87.242	85.953	131.742	193.073	118.922	122.312	120.354	185.290	137.687	118.827	197.752	89.104	27.832
31.000	331.229	333.974	279.519	222.413	298.259	293.914	296.373	232.178	280.665	300.671	220.814	331.897	87.887	86.454	129.856	196.582	120.378	124.604	122.599	187.964	138.379	118.063	197.657	88.388	35.953
32.000	328.364	333.735	280.856	221.721	297.543	293.031	295.395	235.974	281.285	296.397	220.909	330.298	90.990	86.406	129.140	197.681	121.715	125.774	123.697	183.953	137.734	122.002	197.394	89.080	51.068
33.000	325.785	333.234	280.927	221.936	296.875	293.580	295.991	242.300	282.789	287.445	221.840	327.719	93.592	86.526	127.803	197.585	121.787	125.010	123.076	177.340	136.159	131.360	196.893	91.635	51.745
34.000	322.515	332.542	280.975	222.986	297.543	294.965	297.448	248.770	284.198	274.720	222.461	325.117	97.699	87.719	128.042	195.986	120.927	123.362	121.309	170.226	134.631	145.398	195.818	94.881	37.171
35.000	315.997	331.229	280.283	227.069	298.999	296.922	299.477	255.168	285.224	257.675	223.631	320.868	103.404	88.436	129.522	191.521	119.423	121.572	119.614	163.494	133.389	162.133	194.959	98.104	28.644
36.000	308.883	330.154	279.328	233.419	300.241	298.999	301.721	260.444	286.633	237.263	224.180	316.164	110.399	89.701	131.312	185.004	118.182	119.471	117.108	157.764	132.339	180.301	193.956	102.879	37.397
37.000	298.331	328.268	276.773	240.319	301.864	301.053	303.535	265.553	287.134	222.079	225.016	310.387	120.498	91.133	133.055	178.248	116.773	117.513	115.365	153.324	131.623	197.561	193.336	108.346	50.121
38.000	284.055	326.621	273.932	247.910	303.273	303.368	305.374	269.778	287.946	240.080	225.111	304.705	136.636	93.210	136.374	170.727	115.246	115.293	113.240	148.931	131.121	180.205	193.001	115.269	48.857
39.000	263.022	323.971	271.521	255.192	304.657	305.207	307.331	273.455	288.018	254.356	225.971	297.352	157.430	95.454	140.122	163.374	113.885	113.216	111.450	145.063	130.739	164.616	192.357	122.002	37.758
40.000	238.719	321.584	267.272	261.828	305.994	307.307	308.644	276.415	288.137	265.911	226.353	289.951	180.874	98.462	144.681	156.547	112.596	111.426	110.184	142.008	130.453	152.966	191.999	130.166	31.892
41.000	222.652	317.549	262.330	267.677	307.093	308.859	309.910	279.017	288.376	274.410	226.639	282.193	196.678	101.518	149.408	150.387	111.593	109.659	108.895	139.119	130.501	144.061	191.641	136.875	38.931
42.000	236.523	313.801	257.006	273.097	307.737	310.411	311.294	281.834	288.853	281.333	226.902	274.290	183.762	105.243	155.711	145.493	110.733	108.513	108.036	136.827	130.262	137.997	191.426	144.634	46.737
43.000	248.316	309.790	251.491	277.943	308.931	311.581	311.891	283.959	288.686	285.797	227.188	267.773	171.539	109.874	162.324	140.695	109.635	107.105	107.105	134.392	130.214	133.055	191.044	151.867	44.842
44.000	257.937	303.965	245.618	281.763	309.790	312.822	312.822	286.179	288.543	289.546	227.236	259.966	161.297	115.293	169.104	136.612	108.728	105.983	106.341	132.411	130.262	129.498	190.805	159.077	39.021
45.000	266.842	297.663	239.578	285.129	310.578	313.419	313.013	288.137	288.352	292.625	227.379	253.473	152.345	122.193	176.600	133.365	107.988	105.457	105.815	130.310	130.190	126.203	190.566	166.406	36.359
46.000	274.267	289.928	234.446	288.042	310.960	313.777	313.586	289.880	288.853	294.917	227.546	246.215	144.705	129.546	182.974	130.190	107.272	104.956	105.505	128.782	130.190	123.935	190.423	172.279	39.608
47.000	280.808	280.760	230.817	290.572	311.772	313.944	314.040	291.288	288.758	296.588	228.191	240.247	139.000	138.594	188.274	127.922	107.057	104.431	105.028	127.230	130.238	122.264	190.160	178.677	43.939
48.000	285.774	272.190	229.552	292.745	311.963	314.302	314.159	292.816	288.782	298.403	227.952	234.756	134.106	147.666	191.497	125.750	106.627	104.335	104.932	125.869	130.143	120.665	189.969	184.120	42.405
49.000	289.856	262.545	231.294	294.344	312.989	314.947	314.780	294.320	288.710	299.167	228.644	229.671	129.856	157.239	189.420	124.103	106.150	104.073	104.479	124.532	130.334	119.471	189.826	189.229	39.563
50.000	292.315	253.067	235.257	296.493	313.133	314.756	314.637	295.466	288.686	300.360	228.477	225.111	126.943	166.693	184.693	121.978	105.792	103.977	104.479	123.339	130.262	118.349	189.635	193.956	39.743
51.000	295.227	242.085	239.555	297.519	313.180	314.851	314.947	296.564	288.686	301.602	228.501	220.360	124.222	176.553	179.584	120.641	105.672	103.786	104.240	122.312	130.190	117.299	189.564	198.182	40.239
52.000	297.113	231.151	244.210	299.429	313.276	315.138	314.732	297.304	288.805	302.270	228.764	218.188	122.312	187.797	174.881	119.471	105.290	103.691	104.264	121.596	130.238	116.415	189.444	201.023	40.826
53.000	298.880	220.957	248.579	300.002	313.825	314.923	315.019	298.092	288.949	303.416	229.122	218.976	120.641	198.253	170.393	118.540	105.243	103.667	104.049	120.760	130.310	115.866	189.253	201.071	40.149
54.000	300.169	229.002	252.255	301.100	313.586	315.281	315.019	298.403	288.686	303.679	228.740	220.623	119.256	190.757	166.430	117.513	104.861	103.595	103.858	120.450	130.357	115.150	189.205	199.017	40.239
55.000	301.053	240.414	255.956	301.602	313.992	315.257	315.233	298.689	288.686	304.466	229.098	222.748	118.254	178.940	162.706	116.869	104.813	103.524	103.929	120.116	130.357	114.601	189.158	196.773	41.232
56.000	302.413	250.202	259.274	302.604	314.135	315.329	315.329	299.023	288.662	304.801	229.098	224.729	117.322	168.794	159.650	116.033	104.598	103.667	104.049	119.853	130.214	114.076	189.110	194.911	40.510
57.000	302.939	258.510	261.781	303.058	314.469	315.806	315.400	299.262	288.710	305.278	229.193	226.520	116.487	161.297	157.215	115.866	104.741	103.524	103.858	119.614	130.310	113.813	188.967	193.097	39.337
58.000	303.917	265.219	264.168	303.177	314.374	315.639	315.353	299.429	288.614	305.421	229.170	228.430	115.699	154.446	154.637	115.246	104.550	103.452	103.762	119.352	130.310	113.360	188.943	191.259	39.292
59.000	304.132	270.423	266.173	303.774	314.159	315.520	315.377	299.883	288.782	305.636	229.361	230.053	115.269	149.098	152.488	114.887	104.502	103.428	103.762	119.161	130.334	113.192	189.014	189.540	41.458
60.000	304.920	274.840	268.059	304.419	314.756	315.926	315.544	299.692	288.424	305.732	229.480	231.629	114.482	144.825	150.889	114.649	104.335	103.333	103.739	118.970	130.310	112.906	188.919	187.821	42.450
61.000	305.445	278.707	270.232	304.061	314.326	315.520	315.591	300.145	288.734	306.448	229.193	233.228	114.243	140.933	149.026	114.482	104.335	103.404	103.691	118.827	130.405	112.667	188.895	186.221	40.510
62.000	306.018	281.715	271.330	304.586	314.493	315.687	315.687	300.050	288.447	306.758	229.122	235.066	113.789	137.806	147.546	114.076	104.407	103.333	103.691	118.803	130.357	112.285	188.919	184.383	39.021
63.000	306.090	284.174	272.810	304.610	314.565	315.687	315.663	300.384	288.686	306.782	229.456	236.666	113.264	135.371	146.018	113.837	104.240	103.380	103.667	118.468	130.310	112.023	188.800	183.070	39.247
64.000	306.472	285.941	273.789	305.111	314.684	315.639	315.735	300.432	288.495	306.878	229.289	237.836	112.882	133.127	144.777	113.741	104.288	103.285	103.619	118.612	130.405	111.832	188.632	181.542	42.315
65.000	307.116	288.161	275.484	305.278	314.708	315.400	315.926	300.265	288.447	307.284	229.456	239.244	112.739	131.312	143.679	113.407	104.216	103.357	103.691	118.468	130.381	111.664	188.513	180.205	43.172
66.000	306.925	289.760	276.224	305.612	314.851	315.711	315.448	300.289	288.400	307.618	229.575	240.653	112.237	129.665	142.437	113.216	104.144	103.380	103.786	118.659	130.525	111.497	188.609	178.844	40.194
67.000	307.045	291.479	277.800	305.708	314.899	315.663	315.448	300.193	288.495	307.713	229.695	241.918	111.927	128.448	141.626	113.121	104.144	103.428	103.619	118.373	130.405	111.211	188.489	177.507	38.209
68.000	307.976	292.434	278.468	305.636	314.660	315.830	315.782	300.671	288.662	307.689	229.337	243.231	111.760	127.015	140.480	112.954	104.192	103.333	103.667	118.134	130.405	111.068	188.370	176.242	39.021
69.000	308.238	293.556	279.161	305.612	315.138	315.735	315.806	300.408	288.519	308.000	229.647	244.043	111.617	126.203	139.740	112.858	104.001	103.357	103.667	118.230	130.548	111.115	188.537	175.239	43.262
70.000	308.620	294.463	280.187	305.851	314.756	315.830	315.782	300.623	288.829	307.880	230.029	245.165	111.426	125.034	138.832	112.667	103.929	103.333	103.571	118.015	130.334	110.829	188.370	174.141	43.714
71.000	308.310	295.490	280.760	306.138	314.828	315.615	315.591	300.551	288.543	308.119	229.886	245.786	110.924	124.413	138.260	112.572	104.025	103.404	103.715	118.182	130.477	110.614	188.346	173.210	39.879
72.000	308.286	296.182	281.596	306.185	314.660	315.400	315.568	300.766	288.614	308.477	229.671	247.099	110.972	123.625	137.567	112.596	104.144	103.500	103.595	118.158	130.525	110.447	188.418	172.351	37.532
73.000	308.644	296.421	282.288	306.209	315.019	315.735	315.663	300.623	288.471	308.382	229.766	248.077	110.638	123.004	137.042	112.452	103.977	103.380	103.548	117.991	130.453	110.519	188.370	171.467	39.157
74.000	309.122	297.090	282.980	306.257	314.708	315.496	315.735	300.885	288.591	308.406	229.552	249.486	110.447	122.479	136.254	112.428	104.120	103.380	103.548	117.919	130.572	110.399	188.322	170.322	43.759
75.000	309.217	298.188	283.506	306.543	315.019	315.639	315.615	300.742	288.877	308.692	229.814	249.725	110.232	121.667	135.872	112.237	104.097	103.380	103.595	117.991	130.453	110.089	188.322	169.343	43.759
76.000	309.289	298.641	283.792	306.448	314.732	315.663	315.902	300.909	288.495	308.907	229.862	251.372	110.184	121.095	135.251	112.237	104.025	103.285	103.595	117.800	130.429	110.017	188.298	168.197	39.427
77.000	309.695	298.880	284.484	306.496	314.828	315.878	315.759	300.742	288.376	308.859	230.005	252.136	109.826	120.641	134.869	112.070	103.953	103.380	103.500	117.848	130.501	109.922	188.274	167.170	37.036
78.000	309.337	299.501	284.914	307.021	314.851	315.377	315.591	300.885	288.591	308.907	230.101	252.876	110.184	120.044	134.225	112.070	104.192	103.452	103.500	117.848	130.477	109.802	188.251	166.550	39.518
79.000	309.671	299.429	285.583	306.758	314.947	315.496	315.615	300.814	288.471	309.241	229.671	253.210	109.802	120.020	134.010	111.879	103.786	103.476	103.595	117.895	130.405	109.659	188.203	166.215	44.210
80.000	309.766	299.859	285.368	306.711	314.804	315.735	315.878	300.909	288.829	309.074	230.029	253.926	109.635	119.686	133.485	111.927	103.977	103.285	103.571	117.752	130.668	109.778	188.155	165.499	43.759
81.000	309.599	300.360	286.156	306.854	314.780	315.591	315.496	301.029	288.829	309.289	229.814	254.905	109.635	119.399	133.246	111.832	104.025	103.428	103.715	117.824	130.596	109.516	188.370	164.759	39.157
82.000	309.575	300.121	286.561	306.949	314.708	315.520	315.472	300.599	288.352	309.528	230.125	255.192	109.444	119.089	132.816	111.784	104.001	103.285	103.548	117.681	130.477	109.540	188.083	164.329	36.675
83.000	310.339	300.694	286.633	306.758	314.589	315.735	315.711	301.076	288.591	309.432	229.719	255.669	109.492	118.898	132.411	111.760	104.001	103.333	103.619	117.728	130.453	109.397	188.179	163.661	40.239
84.000	310.005	300.694	286.752	306.734	314.804	315.544	315.854	301.148	288.591	309.265	229.743	256.648	109.158	118.468	132.220	111.617	104.025	103.261	103.500	117.872	130.453	109.253	188.131	162.873	44.390
85.000	310.506	300.933	287.373	306.878	314.780	315.568	316.069	301.363	288.495	309.265	230.053	256.911	109.134	118.301	131.861	111.688	104.073	103.357	103.524	117.609	130.334	109.229	188.012	162.419	43.398
86.000	310.483	301.315	287.325	306.949	315.114	315.806	315.687	301.315	288.471	309.766	230.339	257.507	109.110	118.373	131.790	111.784	103.929	103.285	103.404	117.609	130.453	109.349	188.036	161.990	38.299
87.000	310.435	301.697	287.827	307.116	314.923	315.902	315.568	301.339	288.495	309.361	230.005	258.009	109.062	118.182	131.288	111.545	103.906	103.333	103.500	117.633	130.357	109.253	188.179	161.488	36.449
88.000	310.387	301.817	287.922	307.021	315.066	315.520	315.591	301.029	288.376	309.647	230.268	258.200	109.038	117.872	131.265	111.641	103.977	103.309	103.476	117.561	130.548	109.277	187.988	160.915	40.781
89.000	311.008	301.411	288.113	307.284	314.875	315.997	316.117	301.053	288.185	309.552	230.029	258.749	108.871	117.824	131.050	111.569	103.858	103.333	103.571	117.561	130.572	109.253	188.107	160.748	44.977
