-----------------------------------------------------
BloodHound 307 VOC Analyser V2017.1
RoboScientific Ltd 
Espace North
Wisbech Road
Littleport
Cambridgeshire, UK
CB6 1RA 
-----------------------------------------------------
Date = 08/04/2022
Time = 12:05:39
Data is protected by RoboScientific Limited
-----------------------------------------------------
Name of the experiment = "47b_Day 37"
-----------------------------------------------------
Repeat No. = 3/4
-----------------------------------------------------
Experimental Time (in sec) and Flow Profile :
-----------------------------------------------------
Baseline = 2.00
Absorb = 4.00
Pause = 1.00
Desorb = 5.00
Flush = 20.00
Wait = 5.00
Higher Flow (V) = 4.00
Medium Flow (V) = 3.00
Low Flow (V) = 1.00
-----------------------------------------------------
Total Profile Time = 37 in sec
-----------------------------------------------------
Acquired data point per second = 4
--------------------------------------------------
Total data point stored  = 128
-----------------------------------------------------
Acquired sensor responses from 24 sensors
-----------------------------------------------------

Data Points	 Sen-1	 Sen-2	 Sen-3	 Sen-4	 Sen-5	 Sen-6	 Sen-7	 Sen-8	 Sen-9	 Sen-10	 Sen-11	 Sen-12	 Sen-13	 Sen-14	 Sen-15	 Sen-16	 Sen-17	 Sen-18	 Sen-19	 Sen-20	 Sen-21	 Sen-22	 Sen-23	 Sen-24	Humidity (%r.h.)
0.000	312.679	306.233	294.726	307.976	315.138	315.568	315.448	301.626	288.853	311.438	230.077	275.962	106.627	113.455	124.723	110.733	103.762	103.357	103.452	117.203	130.477	107.463	188.060	143.727	36.179
1.000	312.631	306.185	294.702	308.692	315.257	315.591	315.615	301.458	288.400	311.175	230.029	275.651	106.675	113.288	124.604	110.471	103.667	103.380	103.524	117.370	130.429	107.415	188.036	143.607	43.849
2.000	312.536	306.114	294.845	308.215	315.233	315.663	315.591	301.554	288.567	311.605	230.053	275.914	106.317	113.360	124.461	110.447	103.739	103.333	103.524	117.275	130.381	107.391	188.155	143.512	47.233
3.000	312.989	306.018	294.583	307.880	315.042	315.854	315.878	301.411	288.424	311.485	230.077	275.794	106.293	113.383	124.461	110.495	103.739	103.380	103.571	117.322	130.357	107.224	188.060	143.488	41.774
4.000	312.822	306.329	295.036	308.429	315.019	315.568	315.639	301.482	288.471	311.270	230.029	275.747	106.747	113.360	124.413	110.495	103.691	103.357	103.500	117.370	130.429	107.248	188.012	143.416	34.690
5.000	312.679	306.090	294.559	308.191	315.210	315.615	315.735	301.530	288.352	311.175	230.172	276.200	106.651	113.336	124.461	110.614	103.667	103.213	103.571	117.299	130.429	107.367	188.131	143.392	36.269
6.000	312.512	306.376	294.678	308.191	315.066	315.520	315.639	301.530	288.853	311.557	230.029	275.794	106.699	113.383	124.222	110.447	103.810	103.380	103.548	117.394	130.429	107.367	187.964	143.201	43.894
7.000	312.846	306.424	294.774	308.143	315.400	315.878	315.735	301.411	288.543	311.724	230.172	276.153	106.556	113.192	124.413	110.471	103.619	103.285	103.500	117.299	130.429	107.439	187.940	142.891	47.143
8.000	312.918	306.424	295.514	308.167	315.042	315.520	315.735	301.530	288.543	311.796	230.125	276.224	106.603	113.240	124.389	110.566	103.715	103.213	103.500	117.370	130.405	107.367	188.012	142.891	41.367
9.000	313.109	306.281	295.108	307.856	315.090	315.711	315.926	301.793	288.853	311.533	229.814	276.224	106.818	113.192	124.198	110.423	103.762	103.309	103.667	117.394	130.357	107.296	187.964	142.772	34.419
10.000	311.581	304.968	294.989	308.215	315.066	315.711	315.735	301.267	288.567	310.960	229.671	274.147	107.439	114.458	124.413	110.686	103.834	103.357	103.452	117.346	130.238	107.725	188.227	144.443	36.314
11.000	296.731	267.868	293.174	307.546	315.162	315.377	315.496	300.432	289.450	307.140	228.071	265.982	121.142	149.408	125.678	111.211	103.882	103.357	103.524	118.158	129.379	110.924	189.969	153.300	40.194
12.000	269.062	261.948	288.543	305.851	314.804	315.663	315.711	297.710	289.808	293.222	226.329	292.482	150.936	158.194	130.763	112.763	104.120	103.428	103.571	120.641	128.901	125.917	191.664	128.018	34.870
13.000	240.533	289.808	280.951	303.488	314.493	315.329	315.329	293.938	290.262	277.871	224.944	305.756	179.489	129.856	138.116	115.031	104.288	103.476	103.619	124.819	128.471	140.886	193.049	113.861	40.871
14.000	236.570	304.108	272.309	299.763	314.302	315.377	315.210	289.880	290.548	265.171	223.941	313.873	181.542	113.670	147.021	118.707	104.646	103.810	103.858	128.782	128.495	153.730	194.147	105.792	51.294
15.000	260.945	313.968	262.783	295.036	313.610	314.613	315.138	286.108	290.023	251.515	223.512	318.862	156.618	104.813	155.448	122.957	105.052	103.906	103.882	132.315	128.877	166.717	194.935	100.635	46.601
16.000	280.139	320.032	253.258	289.713	312.942	314.326	314.804	281.739	289.569	235.639	222.604	322.992	138.355	99.441	165.380	128.424	105.457	104.383	104.335	136.923	129.283	182.497	195.556	97.078	33.066
17.000	294.893	323.661	244.735	284.508	312.440	313.491	314.040	276.964	289.092	219.716	222.008	324.902	124.890	95.598	174.929	134.655	106.221	105.052	104.741	141.673	129.808	199.519	196.081	94.714	29.772
18.000	304.347	326.263	237.955	277.370	311.915	312.870	313.610	271.975	288.065	235.854	221.960	326.955	114.147	92.876	183.691	141.459	106.747	105.696	105.386	146.687	130.334	183.786	196.535	93.473	42.721
19.000	312.034	328.698	236.714	270.232	311.103	311.652	312.822	266.675	287.588	250.512	221.172	327.218	106.579	90.513	185.147	148.239	107.487	106.866	106.102	151.891	131.145	167.886	196.630	92.399	53.775
20.000	317.692	329.581	241.059	263.118	309.981	310.268	311.867	261.399	286.896	263.667	221.005	328.674	101.351	89.486	176.433	155.210	108.537	108.060	107.129	157.000	132.029	154.732	197.084	91.754	45.744
21.000	321.321	330.680	248.149	255.717	308.931	308.764	310.888	255.932	286.203	273.813	221.148	329.605	98.033	88.650	166.000	162.276	109.397	110.041	108.107	162.491	132.864	144.586	197.609	90.895	31.216
22.000	324.353	331.778	255.120	249.080	307.952	306.734	309.432	250.871	285.057	282.121	221.053	329.820	95.383	87.934	157.955	169.892	110.733	111.999	109.397	168.101	133.938	136.421	197.418	90.178	29.862
23.000	326.215	332.351	260.802	242.252	306.448	304.061	307.451	245.690	284.365	288.925	220.718	330.560	92.494	86.979	150.244	176.982	112.094	114.458	111.378	173.473	134.869	130.166	197.728	90.083	43.443
24.000	327.886	333.329	265.481	235.496	305.326	301.649	305.374	240.963	282.980	292.506	220.695	330.870	91.277	85.953	143.488	183.691	113.789	117.346	113.646	178.343	135.801	125.034	197.919	89.295	54.542
25.000	329.414	333.306	269.563	229.265	303.703	298.689	302.891	236.045	282.097	296.326	220.313	330.966	90.011	85.523	139.095	189.683	115.198	120.020	115.938	183.285	136.994	122.479	198.110	89.104	45.654
26.000	329.271	332.995	271.831	227.284	302.628	297.806	301.554	235.496	281.548	296.445	220.838	331.085	89.820	86.192	136.684	191.832	116.057	120.832	117.490	184.097	137.209	122.431	198.182	89.558	30.404
27.000	329.366	332.995	272.524	228.191	302.079	297.472	300.694	236.356	282.264	295.848	220.575	331.467	89.749	86.526	136.159	191.211	116.511	120.784	117.967	183.404	137.257	122.503	197.776	89.486	30.043
28.000	329.963	333.616	272.882	228.835	302.055	298.021	301.005	237.024	281.620	295.466	220.671	330.847	89.486	86.072	135.419	190.423	116.678	120.641	118.230	182.712	137.018	123.267	197.991	88.985	44.390
29.000	330.298	333.091	273.264	229.193	302.557	298.450	300.790	237.907	282.002	294.845	220.981	330.823	89.128	86.168	135.944	189.468	116.797	120.522	118.373	181.948	136.779	123.649	198.039	89.319	54.587
30.000	330.894	333.664	273.765	228.835	301.458	297.304	300.217	236.618	281.596	297.042	220.575	331.563	88.579	86.096	135.013	190.304	117.132	121.309	118.898	182.855	137.066	121.262	198.015	89.128	45.067
31.000	330.584	334.046	275.580	225.135	300.121	294.989	297.901	234.374	281.094	297.304	220.575	330.775	89.486	86.311	133.103	193.980	118.301	123.410	120.856	185.481	137.734	120.999	198.063	88.913	30.494
32.000	327.815	333.234	277.346	223.559	299.381	294.368	297.161	238.862	282.312	292.745	220.790	328.961	91.754	86.693	131.718	196.200	119.113	124.341	121.811	180.444	136.732	125.607	197.800	90.966	30.674
33.000	323.565	333.162	277.752	223.655	299.477	295.084	297.591	245.141	283.195	282.575	221.554	327.122	95.192	87.433	131.169	195.198	119.280	123.458	120.951	174.261	135.371	136.063	196.654	92.733	45.022
34.000	319.101	331.372	277.680	227.069	300.169	296.922	299.286	251.658	284.819	267.510	222.461	323.708	100.611	87.433	131.575	191.927	118.516	121.954	119.280	167.433	134.034	150.507	195.914	95.884	53.550
35.000	313.085	330.321	276.511	232.512	301.363	298.426	301.172	257.651	286.179	250.321	223.225	319.913	106.770	88.913	132.864	186.699	117.299	119.877	117.561	161.178	132.912	168.507	194.935	99.489	44.120
36.000	304.848	329.199	275.341	238.289	302.318	300.336	303.058	262.425	286.872	229.719	223.941	314.708	114.553	90.369	134.846	179.919	115.890	118.182	115.771	155.735	131.909	189.325	194.171	105.314	31.216
37.000	292.601	327.528	272.667	245.475	303.798	302.413	305.254	267.057	287.397	229.002	224.896	308.549	126.084	91.945	137.352	172.876	114.840	116.105	113.741	151.008	131.193	189.420	193.455	110.638	32.208
38.000	274.386	325.547	269.492	252.757	304.920	304.562	306.711	271.020	288.018	246.263	225.302	301.482	143.894	94.165	140.599	165.618	113.479	113.885	111.855	147.308	130.716	172.470	192.882	117.728	43.939
39.000	251.372	322.921	265.935	259.680	305.851	306.114	308.573	274.529	288.519	260.181	225.612	293.556	167.146	97.030	144.705	159.077	112.691	112.500	110.566	143.798	130.668	159.149	192.595	125.463	50.211
40.000	227.976	319.674	261.637	266.030	307.116	308.047	309.647	277.752	288.543	270.662	225.756	286.824	192.237	99.990	149.671	152.393	111.426	110.519	109.229	140.671	130.501	148.668	192.142	133.007	42.766
41.000	231.557	315.568	256.672	271.163	308.429	309.862	310.817	280.450	288.662	277.657	226.615	279.208	186.603	103.715	155.759	146.902	110.495	108.943	108.227	137.782	130.334	140.718	191.664	140.480	34.509
42.000	245.499	311.843	251.133	276.129	308.883	310.888	311.605	282.837	288.304	283.768	226.663	271.426	173.664	107.892	161.918	142.008	109.707	107.630	107.224	135.395	130.286	134.965	191.330	148.215	35.682
43.000	256.170	306.734	245.714	280.259	309.814	312.345	312.345	285.153	288.805	288.328	227.307	263.738	163.112	112.476	168.650	137.782	108.776	106.484	106.556	133.055	130.143	130.644	191.259	155.329	42.766
44.000	265.099	300.456	240.319	284.293	310.817	313.037	312.774	287.182	288.829	291.408	227.212	256.720	154.565	118.898	175.430	134.368	108.179	105.792	106.078	131.384	130.190	127.516	191.044	162.610	45.248
45.000	272.309	293.747	235.233	287.110	311.223	313.825	313.538	289.140	288.614	293.891	227.355	249.963	147.069	125.989	182.163	131.265	107.367	105.052	105.553	129.546	130.190	124.986	190.757	169.152	41.909
46.000	278.277	285.797	231.318	289.737	311.557	314.159	313.825	290.477	288.686	295.562	227.451	243.613	141.005	134.201	187.773	128.710	106.938	104.789	105.266	128.018	130.190	123.171	190.590	175.216	38.254
47.000	283.506	276.439	230.316	291.909	311.987	314.159	314.087	292.243	288.567	296.994	228.095	238.194	135.944	142.652	190.996	126.538	106.532	104.383	104.837	126.347	130.286	121.476	190.423	180.659	38.660
48.000	287.492	267.200	232.082	293.914	312.727	314.446	314.135	293.485	288.686	298.570	227.976	232.846	131.957	152.202	189.540	124.771	106.126	104.240	104.765	125.225	130.286	120.211	190.137	185.911	41.728
49.000	290.954	258.582	235.019	295.777	312.751	314.851	314.517	294.965	288.925	299.716	228.191	228.286	128.376	160.533	185.219	123.124	105.959	104.240	104.574	123.744	130.166	118.970	189.898	190.256	42.495
50.000	294.058	248.889	239.483	297.448	313.156	314.923	314.732	296.039	288.758	300.981	228.453	223.512	125.392	170.966	180.181	121.405	105.601	103.858	104.168	122.694	130.238	117.943	189.874	194.959	39.969
51.000	295.944	237.621	243.900	298.617	313.443	315.090	314.828	296.970	288.567	301.817	228.334	219.501	123.458	181.829	175.096	120.068	105.290	103.810	104.144	121.835	130.214	116.845	189.755	199.543	39.427
52.000	297.782	226.591	248.340	299.572	313.586	315.162	315.019	297.376	288.805	302.533	228.668	218.259	121.620	192.476	170.250	118.994	105.243	103.715	104.073	121.238	130.143	116.200	189.659	201.524	40.194
53.000	299.453	223.249	252.566	300.718	313.896	315.210	315.066	298.021	288.853	303.273	228.477	219.119	120.140	197.681	166.359	117.991	105.004	103.571	104.049	120.784	130.238	115.604	189.516	200.617	40.465
54.000	300.790	233.419	255.788	301.220	314.064	315.353	315.305	298.641	288.758	304.156	228.501	221.124	118.874	186.842	162.539	117.203	104.789	103.619	104.025	120.378	130.310	114.887	189.564	198.540	39.608
55.000	301.626	244.520	259.465	302.007	314.111	315.424	315.281	298.713	288.805	304.347	228.788	223.225	117.872	175.741	159.340	116.463	104.717	103.524	104.097	120.068	130.190	114.505	189.444	196.606	39.969
56.000	302.413	252.971	261.972	302.843	314.565	315.496	315.090	298.880	288.829	305.016	228.764	225.445	117.012	165.977	156.594	115.914	104.598	103.476	103.739	119.734	130.286	114.028	189.516	194.219	41.232
57.000	302.962	261.112	264.717	303.225	314.087	315.329	315.329	299.429	288.710	305.063	228.716	227.307	116.344	158.600	154.088	115.484	104.479	103.357	103.762	119.519	130.286	113.646	189.396	192.381	41.503
58.000	303.989	266.818	267.009	303.607	314.398	315.520	315.305	299.477	288.758	305.517	228.883	228.907	115.484	152.727	151.820	115.174	104.359	103.428	103.691	119.328	130.429	113.312	189.277	190.662	39.788
59.000	304.419	272.022	269.134	303.774	314.111	315.615	315.615	299.596	288.567	305.875	229.241	230.769	114.935	147.666	149.767	114.792	104.526	103.524	103.739	119.185	130.310	113.073	189.062	188.943	39.157
60.000	305.087	276.081	270.853	304.538	314.493	315.568	315.544	299.692	288.686	306.472	229.384	232.082	114.482	143.679	147.976	114.577	104.383	103.380	103.595	118.946	130.286	112.882	189.134	187.081	39.743
61.000	305.565	279.352	272.595	304.371	314.493	315.520	315.472	299.835	288.519	306.305	229.146	233.729	114.028	140.193	146.448	114.171	104.359	103.333	103.739	119.041	130.381	112.452	189.110	185.624	42.450
62.000	306.161	282.097	273.980	304.944	314.660	315.544	315.568	300.193	288.591	306.567	229.026	235.424	113.550	137.257	145.087	113.909	104.168	103.476	103.691	118.779	130.357	112.237	189.014	183.953	42.315
63.000	306.018	284.484	275.365	305.302	314.374	315.496	315.687	300.026	288.543	306.902	229.217	236.547	113.312	135.084	143.894	113.837	104.383	103.428	103.691	118.779	130.310	111.951	189.182	182.855	39.653
64.000	306.543	286.323	276.176	305.230	314.446	315.544	315.711	300.384	288.686	307.236	229.408	238.074	112.763	133.055	142.700	113.455	104.216	103.452	103.691	118.659	130.501	111.808	188.943	181.375	38.660
65.000	306.567	288.280	277.489	305.374	314.350	315.424	315.520	300.456	288.543	307.307	229.098	239.244	112.500	131.432	141.578	113.312	104.407	103.524	103.762	118.659	130.381	111.450	188.943	180.181	39.833
66.000	306.949	289.689	278.349	305.350	314.493	315.496	315.615	300.002	288.519	307.331	229.528	240.151	112.381	130.023	140.623	113.240	104.144	103.452	103.667	118.492	130.357	111.569	188.919	179.274	43.398
67.000	307.713	290.882	279.590	305.684	314.708	315.591	315.711	300.241	288.662	307.737	229.361	241.154	111.784	128.758	139.740	112.906	104.097	103.333	103.762	118.612	130.405	111.235	188.991	178.080	42.811
68.000	307.880	291.623	280.593	305.970	314.971	315.735	315.400	300.408	288.567	307.856	229.193	242.228	111.832	127.707	138.880	112.930	104.025	103.285	103.571	118.397	130.405	111.115	188.871	177.245	39.202
69.000	307.713	293.055	280.927	305.923	314.804	315.878	315.687	300.503	288.614	307.809	229.337	243.422	111.569	126.514	138.188	112.763	104.097	103.309	103.595	118.445	130.405	110.996	188.800	175.908	38.119
70.000	308.071	293.891	281.763	306.161	314.995	315.687	315.496	300.384	288.614	308.024	229.313	244.353	111.330	125.750	137.448	112.715	104.049	103.333	103.595	118.349	130.334	110.781	188.847	175.144	39.879
71.000	308.334	294.559	282.145	306.114	314.899	315.615	315.854	300.599	288.614	308.167	229.814	245.165	111.139	124.962	137.018	112.500	104.049	103.285	103.452	118.349	130.405	110.853	188.776	174.117	44.165
72.000	308.358	295.299	283.004	306.257	314.756	315.735	315.568	300.456	288.758	308.119	229.528	246.072	110.757	124.317	136.254	112.476	104.001	103.380	103.548	118.182	130.405	110.471	188.728	173.306	43.127
73.000	308.716	295.657	283.243	306.520	314.971	315.878	315.950	300.694	288.447	307.856	229.289	246.860	110.829	123.673	135.753	112.405	103.977	103.428	103.524	118.134	130.429	110.614	188.680	172.661	39.427
74.000	308.525	296.708	283.768	306.496	314.708	315.687	315.711	300.623	288.638	308.167	229.504	248.173	110.710	122.981	135.442	112.428	104.049	103.357	103.476	118.086	130.286	110.447	188.656	171.611	37.442
75.000	309.098	297.137	284.723	306.114	314.708	315.568	315.878	300.671	288.614	308.740	229.217	248.794	110.280	122.503	134.583	112.214	104.049	103.380	103.571	118.110	130.525	110.351	188.728	170.608	39.924
76.000	309.050	297.090	284.747	306.878	315.019	315.568	315.663	300.766	288.591	308.477	229.790	249.558	110.375	122.049	134.201	112.190	104.073	103.404	103.452	118.015	130.429	110.304	188.728	169.963	44.030
77.000	309.456	297.758	285.296	306.376	314.732	315.759	315.687	301.076	288.638	308.597	229.480	250.250	109.922	121.500	133.938	112.094	104.001	103.309	103.428	117.943	130.381	110.041	188.680	169.319	43.623
78.000	309.289	298.594	285.845	306.496	314.613	315.400	315.544	300.981	288.853	308.859	229.480	250.799	110.065	121.285	133.604	112.023	104.025	103.380	103.571	117.895	130.501	109.993	188.632	168.579	39.247
79.000	309.647	298.594	286.084	306.496	314.851	315.568	315.520	300.814	288.543	309.026	229.575	251.324	109.993	120.808	133.079	111.879	104.025	103.380	103.643	117.895	130.310	109.874	188.609	168.054	37.036
80.000	309.599	298.546	286.203	306.448	315.090	315.926	315.926	300.814	288.614	309.050	229.671	251.945	109.850	120.522	132.721	112.166	104.073	103.285	103.452	117.943	130.286	109.874	188.680	167.552	39.924
81.000	309.790	299.214	286.752	307.284	314.923	315.544	315.520	300.671	288.638	308.931	229.743	252.828	109.731	120.259	132.530	111.832	103.858	103.428	103.524	118.039	130.453	109.755	188.537	166.884	44.210
82.000	309.408	299.405	286.896	306.711	314.565	315.663	315.735	300.814	288.901	309.289	229.480	253.425	109.540	119.901	132.124	111.879	103.977	103.333	103.548	117.919	130.405	109.468	188.489	166.000	43.714
83.000	309.575	299.954	286.943	306.615	314.637	315.448	315.902	301.053	288.758	308.955	229.743	254.117	109.468	119.638	131.861	111.879	103.977	103.309	103.357	117.919	130.548	109.731	188.537	165.237	39.112
84.000	310.268	300.742	287.707	306.902	314.637	315.806	315.806	300.933	288.400	308.931	229.647	254.977	109.444	119.352	131.647	111.712	103.786	103.428	103.619	117.943	130.429	109.540	188.489	164.329	36.720
85.000	310.244	300.312	288.352	307.093	314.851	315.520	315.782	301.005	288.376	309.289	229.528	255.574	109.349	119.065	131.265	111.664	103.929	103.309	103.548	117.848	130.453	109.444	188.513	163.804	40.104
86.000	309.695	300.527	288.519	306.878	314.875	315.663	315.687	301.172	288.376	309.313	229.647	255.956	109.086	118.946	131.121	111.569	103.858	103.476	103.619	117.824	130.405	109.420	188.609	163.351	44.390
87.000	310.793	300.838	288.638	307.069	315.233	315.711	315.830	300.981	288.567	309.432	229.575	256.505	109.158	118.779	130.620	111.521	103.858	103.285	103.452	117.919	130.405	109.301	188.442	162.969	43.623
88.000	310.435	301.029	288.686	306.973	314.875	315.973	315.568	300.838	288.614	309.313	229.862	256.887	109.229	118.588	130.596	111.593	103.906	103.309	103.404	117.895	130.357	109.349	188.465	162.491	38.705
89.000	310.101	301.196	288.901	306.949	314.875	315.687	315.591	300.933	288.471	309.766	229.862	257.340	109.038	118.445	130.238	111.545	103.977	103.428	103.428	117.609	130.477	109.397	188.585	162.061	36.404
