-----------------------------------------------------
BloodHound 307 VOC Analyser V2017.1
RoboScientific Ltd 
Espace North
Wisbech Road
Littleport
Cambridgeshire, UK
CB6 1RA 
-----------------------------------------------------
Date = 08/04/2022
Time = 11:34:32
Data is protected by RoboScientific Limited
-----------------------------------------------------
Name of the experiment = "47b_Day 27"
-----------------------------------------------------
Repeat No. = 2/4
-----------------------------------------------------
Experimental Time (in sec) and Flow Profile :
-----------------------------------------------------
Baseline = 2.00
Absorb = 4.00
Pause = 1.00
Desorb = 5.00
Flush = 20.00
Wait = 5.00
Higher Flow (V) = 4.00
Medium Flow (V) = 3.00
Low Flow (V) = 1.00
-----------------------------------------------------
Total Profile Time = 37 in sec
-----------------------------------------------------
Acquired data point per second = 4
--------------------------------------------------
Total data point stored  = 128
-----------------------------------------------------
Acquired sensor responses from 24 sensors
-----------------------------------------------------

Data Points	 Sen-1	 Sen-2	 Sen-3	 Sen-4	 Sen-5	 Sen-6	 Sen-7	 Sen-8	 Sen-9	 Sen-10	 Sen-11	 Sen-12	 Sen-13	 Sen-14	 Sen-15	 Sen-16	 Sen-17	 Sen-18	 Sen-19	 Sen-20	 Sen-21	 Sen-22	 Sen-23	 Sen-24	Humidity (%r.h.)
0.000	313.347	307.069	300.169	308.859	315.472	315.782	315.759	300.838	288.471	311.819	230.101	282.384	106.245	112.333	118.922	109.946	103.667	103.357	103.476	117.991	130.716	107.176	188.442	136.851	33.066
1.000	313.705	307.260	300.551	308.692	315.066	315.759	315.973	300.885	288.185	311.628	229.910	282.336	106.174	112.333	118.803	110.065	103.691	103.380	103.428	117.991	130.739	107.176	188.274	137.114	37.036
2.000	313.037	306.949	300.599	308.740	315.186	315.472	315.591	301.029	288.686	312.225	230.005	282.121	106.006	112.428	118.803	109.969	103.667	103.309	103.476	117.943	130.811	107.129	188.442	136.923	45.473
3.000	313.610	307.021	300.145	308.716	315.281	315.639	315.997	300.862	288.567	311.867	230.005	282.216	106.293	112.428	118.659	110.041	103.715	103.213	103.380	117.967	130.787	107.224	188.465	137.018	47.594
4.000	313.228	307.188	300.480	308.764	315.019	315.591	315.735	300.766	288.519	312.154	229.671	282.121	106.388	112.643	118.707	109.898	103.571	103.333	103.571	118.039	130.763	107.057	188.489	137.066	40.871
5.000	313.443	306.878	300.718	308.740	315.257	315.639	315.782	300.694	288.519	312.082	230.101	282.002	106.293	112.715	118.803	109.731	103.548	103.357	103.500	118.086	130.716	107.176	188.370	137.114	33.517
6.000	313.395	307.045	300.694	308.907	315.138	315.424	315.902	301.100	288.519	311.796	229.623	282.097	106.078	112.548	118.827	109.874	103.691	103.309	103.404	117.848	130.692	107.200	188.370	137.090	35.773
7.000	313.419	306.925	300.790	308.979	315.448	315.782	315.950	301.100	288.185	311.557	229.957	282.336	106.269	112.452	118.731	109.898	103.619	103.309	103.380	117.848	130.644	107.105	188.346	136.779	44.255
8.000	313.705	307.236	300.957	308.525	314.995	315.782	315.950	301.172	288.161	311.724	230.101	282.694	106.245	112.428	118.636	109.946	103.619	103.357	103.452	117.800	130.692	107.081	188.465	136.517	47.910
9.000	313.133	306.997	300.766	309.002	315.400	315.806	315.663	300.814	288.519	311.987	229.957	282.598	105.768	112.285	118.516	109.850	103.667	103.213	103.428	117.872	130.644	106.914	188.179	136.517	42.450
10.000	312.321	305.732	300.551	308.883	315.400	315.854	315.878	300.790	288.376	311.294	229.337	280.951	107.367	114.028	118.707	110.017	103.691	103.261	103.500	117.919	130.405	107.511	188.704	139.334	34.239
11.000	297.830	271.497	299.477	308.143	314.947	315.305	315.615	300.098	289.187	308.071	227.666	257.340	120.402	145.708	119.758	110.471	103.739	103.404	103.524	118.683	129.689	110.948	190.375	160.032	39.337
12.000	269.492	258.080	295.538	307.021	315.042	315.615	315.448	297.161	289.426	294.082	226.042	286.561	149.217	158.934	123.124	111.426	103.834	103.404	103.380	121.500	128.949	124.795	192.190	131.742	39.788
13.000	241.775	287.325	290.691	304.538	314.326	315.233	315.520	293.604	290.429	280.307	224.777	302.151	176.839	132.172	127.922	113.670	104.097	103.571	103.619	125.081	128.949	138.809	193.407	117.537	32.073
14.000	238.433	303.655	285.057	302.222	314.064	315.114	315.281	289.665	289.880	268.895	224.085	311.485	180.897	115.484	133.843	116.535	104.335	103.667	103.739	128.686	128.734	151.175	194.434	107.534	35.998
15.000	263.476	312.822	278.301	298.021	313.992	314.971	315.424	285.893	289.880	254.475	223.010	317.454	155.257	105.815	140.718	120.713	104.693	103.858	104.001	132.745	128.949	165.642	195.269	102.091	48.767
16.000	283.506	318.647	271.235	293.843	313.873	314.422	314.780	281.524	289.498	237.597	222.628	321.130	135.538	99.346	147.522	124.652	104.741	104.097	104.049	136.708	129.426	181.208	195.842	98.080	51.610
17.000	297.997	323.159	263.285	288.089	313.371	313.992	314.732	277.036	288.996	220.432	221.673	323.804	120.808	95.359	155.830	130.286	105.386	104.789	104.550	141.530	130.119	197.919	196.726	95.932	40.420
18.000	307.713	325.762	255.359	281.739	312.345	312.846	314.040	271.330	288.185	239.005	221.793	325.881	111.068	92.924	164.568	136.469	105.839	105.410	104.980	146.902	130.644	180.659	197.203	93.568	28.824
19.000	315.544	328.173	248.054	275.436	312.058	311.915	313.634	266.102	287.516	255.407	221.029	327.313	104.383	90.942	173.043	142.867	106.412	106.627	105.577	152.560	131.599	163.828	197.561	92.446	33.111
20.000	320.342	329.605	242.443	268.489	311.270	310.674	312.512	260.253	286.681	268.418	220.790	328.459	98.892	90.155	179.704	150.029	107.224	108.298	106.341	158.624	132.434	150.745	197.490	91.563	47.413
21.000	323.446	330.489	240.677	261.041	310.817	308.453	311.342	254.332	285.654	277.680	220.384	328.746	95.908	88.674	181.972	157.048	107.845	110.065	107.678	164.353	133.437	140.241	198.086	90.823	54.091
22.000	326.263	330.369	243.446	253.759	309.742	305.923	309.910	248.698	284.771	285.248	220.384	329.605	93.139	87.934	175.144	164.544	108.680	112.285	109.038	170.274	134.464	132.936	198.110	89.916	42.902
23.000	327.552	331.682	248.340	246.358	308.549	303.034	308.262	242.300	283.100	291.241	220.551	330.417	91.157	87.099	166.884	171.945	109.707	115.174	110.924	176.385	135.586	126.967	198.230	89.152	29.682
24.000	329.486	332.207	253.306	239.746	307.952	300.480	306.018	237.382	281.834	295.991	220.241	330.465	90.489	86.454	158.719	179.561	110.757	118.039	113.121	182.306	136.612	122.193	198.230	88.603	30.584
25.000	329.963	332.852	257.985	232.416	306.496	297.854	303.774	232.488	280.641	299.334	220.169	330.369	88.865	86.597	153.276	186.293	112.023	120.522	115.078	187.439	138.092	119.423	198.301	88.889	44.706
26.000	329.534	332.637	260.301	230.459	305.636	296.564	302.294	231.963	280.498	299.238	220.074	330.727	88.818	86.550	149.337	189.086	112.739	121.667	116.797	188.370	138.474	119.376	198.564	88.818	54.226
27.000	329.892	333.210	262.592	231.175	305.350	296.994	301.649	232.273	280.879	299.071	219.644	330.894	88.889	86.693	147.737	188.537	113.049	121.524	117.179	187.725	138.379	120.163	198.612	88.603	46.195
28.000	330.226	333.306	262.831	231.485	305.350	297.400	301.363	232.894	280.736	298.307	219.931	331.420	88.627	86.860	146.591	187.558	112.978	121.118	117.466	186.961	138.188	120.307	198.635	89.009	31.892
29.000	330.966	333.688	263.476	232.560	305.803	297.710	301.435	233.825	280.736	297.400	220.169	331.420	89.223	86.287	145.780	186.603	112.978	121.071	117.561	186.174	137.973	120.736	198.683	89.032	28.960
30.000	332.255	333.473	264.813	231.581	305.278	296.469	300.814	232.965	280.450	300.074	220.002	331.802	87.958	86.168	144.347	187.343	113.312	122.026	118.158	187.081	138.092	118.445	198.612	88.698	41.593
31.000	331.300	333.711	266.627	227.689	303.703	294.344	298.928	229.814	279.829	300.933	219.716	331.634	88.746	86.454	141.984	191.617	114.362	124.103	120.140	190.375	139.214	117.108	198.492	89.223	53.640
32.000	329.295	333.855	269.038	224.562	302.485	292.912	297.710	231.366	280.211	298.761	220.145	330.512	91.157	86.311	139.978	195.222	115.580	125.702	121.739	188.465	138.976	119.614	198.683	89.773	49.218
33.000	327.122	333.210	270.518	223.655	302.175	292.888	297.304	236.761	281.452	291.479	220.289	329.080	93.330	86.621	138.713	195.484	115.627	125.320	121.715	182.736	137.519	127.922	198.301	90.895	34.870
34.000	322.777	332.231	270.781	225.708	303.010	294.416	298.140	243.327	283.553	279.948	221.005	326.884	97.078	87.123	138.522	193.503	115.293	124.055	120.569	175.598	135.777	139.620	197.728	94.547	28.238
35.000	317.859	330.942	269.635	229.575	304.180	296.159	300.217	249.772	284.675	264.240	221.960	322.754	101.709	88.078	139.095	188.776	114.529	122.503	118.850	168.579	134.297	154.732	196.487	96.958	37.397
36.000	311.939	329.892	268.991	235.544	305.230	298.259	301.721	256.266	285.630	244.783	222.986	317.788	108.036	89.391	140.050	183.022	113.837	120.593	117.084	162.658	132.983	174.022	195.627	101.638	49.985
37.000	303.106	328.149	267.749	242.730	305.803	299.954	303.846	261.805	286.943	224.228	223.440	313.252	116.821	91.348	142.700	176.314	112.619	118.564	115.198	156.881	132.172	195.556	194.816	106.938	50.662
38.000	291.455	326.931	264.884	249.916	306.782	302.175	305.636	266.317	287.898	235.830	224.037	306.854	128.495	92.995	145.923	169.009	111.617	116.535	113.264	152.058	131.384	184.383	194.004	113.264	39.472
39.000	274.434	324.019	260.993	256.600	307.522	304.108	307.427	270.375	287.970	251.038	224.538	299.549	146.353	95.383	150.125	161.608	110.686	114.386	111.736	148.143	131.074	167.982	193.407	120.116	30.810
40.000	251.778	321.059	256.958	263.022	308.620	306.161	308.979	274.028	287.755	264.073	225.278	291.909	167.528	97.937	154.374	155.138	109.874	112.214	110.160	144.252	130.787	154.852	193.073	127.278	35.818
41.000	227.546	318.098	252.088	269.516	309.599	308.668	310.435	277.561	288.400	273.574	225.469	283.601	191.139	100.945	159.650	149.265	109.373	110.781	108.991	141.268	130.811	145.589	192.763	135.180	45.428
42.000	231.223	314.183	246.884	275.221	309.981	309.599	311.223	280.211	288.328	280.545	225.875	275.365	189.205	105.028	166.072	143.894	108.656	109.062	108.036	138.355	130.501	138.546	192.214	143.464	47.368
43.000	243.876	310.053	243.064	279.543	310.745	311.223	312.034	282.861	288.567	285.941	226.114	268.107	176.505	109.635	172.542	139.095	107.988	107.892	107.081	135.681	130.357	133.365	191.999	151.032	41.458
44.000	254.022	304.466	237.669	283.482	311.461	312.082	312.631	285.392	288.376	289.331	226.520	260.539	165.237	114.720	179.202	135.490	107.415	106.532	106.412	133.270	130.310	129.450	191.617	158.695	36.269
45.000	263.189	298.426	234.470	286.466	311.533	312.774	313.109	287.230	288.805	292.649	226.544	253.401	156.284	120.498	184.646	131.694	106.985	105.720	105.768	131.265	130.381	126.371	191.569	165.332	37.262
46.000	271.402	290.930	233.013	289.235	312.010	313.658	313.610	289.641	288.782	295.013	227.069	246.430	148.024	128.066	188.179	129.068	106.341	105.028	105.266	128.877	130.310	123.912	191.282	172.446	41.999
47.000	278.158	282.097	234.851	291.670	312.918	314.374	314.302	291.408	288.638	296.803	227.642	239.364	141.864	136.517	187.009	126.705	106.102	104.693	105.147	127.373	130.429	122.288	191.044	178.940	43.939
48.000	282.861	273.073	237.597	294.153	312.560	314.398	314.278	292.673	288.686	298.140	227.284	234.398	137.185	146.257	183.213	124.532	105.696	104.335	104.837	126.299	130.405	120.808	190.996	184.717	41.413
49.000	286.466	263.476	241.894	295.562	313.180	314.422	314.159	293.891	288.304	299.381	227.498	229.289	132.315	156.045	178.319	122.670	105.386	104.240	104.646	124.890	130.357	119.328	190.495	189.396	39.202
50.000	291.121	253.067	246.406	297.663	313.562	315.138	314.708	295.060	288.471	300.503	227.857	224.490	128.400	166.048	172.781	120.927	105.266	103.906	104.359	123.721	130.453	118.206	190.686	194.386	39.157
51.000	293.747	242.777	251.372	298.856	313.753	315.257	315.281	296.206	288.376	301.602	227.809	219.954	125.750	175.932	167.409	119.543	105.075	103.762	104.288	123.004	130.548	117.108	190.518	198.874	40.375
52.000	295.777	231.843	256.290	300.074	313.920	315.448	315.186	296.493	288.471	302.485	227.976	218.713	123.721	186.412	163.016	118.373	104.741	103.786	104.192	122.360	130.429	116.439	190.304	201.023	40.600
53.000	297.710	221.960	260.181	301.100	314.064	315.162	315.114	297.281	288.519	303.559	227.761	220.145	121.882	196.487	158.576	117.466	104.598	103.643	103.953	121.787	130.572	115.627	190.256	199.949	39.879
54.000	299.381	226.424	263.619	301.984	314.040	315.186	315.090	297.686	288.567	303.798	227.928	222.724	119.877	193.789	154.875	116.535	104.550	103.691	104.073	121.333	130.572	115.055	190.041	197.299	40.465
55.000	300.360	236.045	267.152	302.748	314.087	315.114	314.923	297.758	288.495	304.466	228.310	225.183	118.588	183.452	151.581	115.771	104.479	103.643	104.097	120.975	130.477	114.482	189.874	194.434	41.322
56.000	302.270	245.833	269.993	303.416	314.278	315.711	315.544	298.140	288.471	304.992	228.525	228.621	117.418	173.330	148.764	115.222	104.264	103.524	103.739	120.665	130.548	114.004	189.850	191.306	40.600
57.000	302.939	254.189	272.213	303.941	314.684	315.615	315.472	298.355	288.829	305.565	228.310	230.435	116.869	165.141	146.305	114.792	104.383	103.548	103.834	120.498	130.429	113.670	189.826	189.205	39.157
58.000	303.416	261.184	274.792	304.299	314.493	315.591	315.400	298.546	288.567	305.732	228.406	232.464	115.890	158.433	144.204	114.410	104.311	103.524	103.834	120.259	130.572	113.192	189.755	187.128	39.112
59.000	304.586	267.677	276.726	304.753	314.732	315.997	315.854	299.071	288.256	305.803	228.310	234.899	115.102	152.297	142.390	113.909	104.144	103.476	103.858	120.092	130.548	112.691	189.683	184.884	40.871
60.000	304.634	272.213	278.158	304.944	314.589	315.687	315.615	298.976	288.495	306.376	228.740	236.427	114.744	146.758	140.575	113.550	104.097	103.476	103.715	120.020	130.501	112.476	189.564	182.712	43.127
61.000	305.780	276.678	280.020	305.230	314.899	315.615	315.520	299.095	288.543	306.854	228.334	238.456	114.100	142.652	138.785	113.336	104.240	103.428	103.643	119.925	130.668	112.190	189.635	180.897	41.683
62.000	306.090	279.829	281.094	305.589	314.446	315.687	315.854	299.453	288.471	306.973	228.549	239.769	113.479	139.549	137.806	113.216	104.097	103.404	103.667	119.734	130.620	112.046	189.468	179.704	39.337
63.000	306.209	282.575	282.479	305.780	314.589	315.472	315.687	299.501	288.495	307.236	228.812	241.441	113.216	136.803	136.588	112.906	103.977	103.476	103.715	119.710	130.668	111.808	189.396	178.152	38.299
64.000	306.711	285.081	283.338	306.018	314.828	315.615	315.735	299.405	288.376	307.355	228.621	242.992	112.739	134.249	135.514	112.667	104.025	103.476	103.715	119.638	130.572	111.545	189.611	176.576	40.510
65.000	306.973	287.158	284.246	305.970	314.565	315.782	315.639	299.167	288.304	307.713	228.883	243.947	112.381	132.363	134.655	112.739	103.977	103.404	103.691	119.567	130.596	111.545	189.420	175.407	43.804
66.000	307.427	288.925	285.153	306.114	314.923	315.806	315.806	299.572	288.614	307.642	229.146	245.213	112.237	130.811	133.795	112.428	103.786	103.333	103.571	119.447	130.763	111.330	189.349	174.285	42.766
67.000	307.785	290.787	286.323	306.376	314.708	315.711	315.830	299.740	288.686	307.880	228.692	246.454	111.808	129.020	133.055	112.309	103.906	103.237	103.762	119.399	130.596	111.092	189.253	172.804	39.698
68.000	308.215	291.694	287.110	306.639	314.804	315.806	315.591	299.525	288.447	307.904	228.812	247.719	111.736	127.660	132.005	112.285	104.001	103.428	103.548	119.256	130.620	110.948	189.253	171.682	37.397
69.000	308.286	293.222	287.874	306.639	315.042	315.759	315.353	299.381	288.328	308.000	228.907	249.247	111.402	126.418	131.527	111.951	103.858	103.548	103.762	119.280	130.739	110.853	189.349	170.345	39.247
70.000	307.904	293.843	288.233	306.591	314.708	315.591	315.782	299.525	288.328	308.429	229.026	249.653	111.139	125.368	130.692	111.927	104.049	103.476	103.595	119.232	130.620	110.638	189.205	169.319	43.488
71.000	308.453	295.108	288.925	306.925	314.851	315.568	315.759	299.644	288.400	308.453	228.812	250.775	110.877	124.580	130.262	111.903	103.858	103.309	103.452	119.161	130.739	110.542	189.277	168.268	43.984
72.000	309.026	295.562	289.546	306.615	314.899	316.045	315.902	299.572	288.233	308.501	229.432	251.658	110.447	123.792	129.713	111.855	103.882	103.380	103.548	118.970	130.692	110.542	189.182	167.337	40.239
73.000	308.788	296.779	290.119	307.140	315.186	315.591	315.711	299.931	288.424	308.453	229.361	252.971	110.399	122.957	129.211	111.784	103.858	103.428	103.500	119.065	130.716	110.232	189.158	166.263	36.856
74.000	309.313	297.018	290.190	307.212	314.971	315.830	315.782	300.121	288.638	308.788	229.313	253.640	110.519	122.503	128.686	111.641	103.810	103.404	103.548	119.065	130.668	110.137	189.134	165.618	38.209
75.000	309.217	297.639	291.169	307.236	314.899	315.472	315.615	299.740	288.400	308.859	229.193	254.404	110.065	122.073	128.304	111.426	103.643	103.237	103.571	118.994	130.787	110.160	189.182	165.093	42.902
76.000	309.528	298.021	291.241	307.045	314.947	316.021	315.711	300.026	288.209	309.098	229.361	255.096	110.065	121.596	128.066	111.497	103.906	103.428	103.524	119.065	130.716	109.946	189.205	164.258	44.526
77.000	309.623	298.546	291.623	307.451	315.066	315.830	315.782	300.002	288.256	308.835	228.979	256.242	110.041	120.951	127.684	111.402	103.667	103.357	103.619	118.898	130.572	109.826	189.158	162.873	41.232
78.000	309.528	299.549	292.172	307.379	314.971	315.591	315.544	299.931	288.471	309.337	229.361	257.651	109.635	120.474	127.373	111.497	103.953	103.404	103.619	118.898	130.596	109.778	189.038	161.966	36.765
79.000	309.886	299.334	292.363	307.307	314.923	315.711	315.878	299.716	288.233	309.050	229.193	258.128	109.635	119.901	126.776	111.187	103.810	103.476	103.619	118.874	130.572	109.516	189.086	161.059	37.487
80.000	310.172	299.787	293.007	307.618	315.138	315.687	315.902	300.098	288.209	309.217	229.002	259.083	109.253	119.447	126.609	111.259	103.762	103.357	103.500	118.850	130.787	109.444	188.967	160.199	42.541
81.000	309.981	300.456	293.150	308.262	315.329	315.568	315.496	300.026	288.185	309.504	229.384	259.680	109.229	119.089	126.442	111.139	103.786	103.309	103.500	118.755	130.739	109.564	188.967	159.507	45.157
82.000	310.674	300.766	293.556	307.284	314.804	315.806	316.021	300.360	288.400	309.289	229.432	260.730	109.182	118.612	125.893	111.115	103.691	103.309	103.548	118.683	130.692	109.492	189.062	158.647	42.315
83.000	310.483	301.482	293.532	307.546	315.186	315.830	315.711	300.336	288.137	309.432	229.289	261.136	109.086	118.540	125.559	111.139	103.667	103.309	103.595	118.803	130.787	109.373	189.014	157.931	37.081
84.000	310.793	301.554	293.604	307.594	315.329	315.878	316.021	300.074	287.946	309.408	229.361	262.592	108.871	117.800	125.248	111.092	103.786	103.213	103.357	118.683	130.668	109.253	189.110	156.427	36.089
85.000	310.602	302.270	294.058	307.666	315.019	315.711	315.782	300.169	288.400	309.766	229.528	263.500	108.943	117.346	124.938	110.996	103.715	103.213	103.571	118.659	130.692	109.182	188.943	155.759	41.052
86.000	310.674	302.055	294.440	307.570	314.971	315.854	315.950	300.169	288.280	310.005	229.146	263.667	108.824	117.203	124.699	110.948	103.739	103.309	103.691	118.779	130.763	109.086	188.919	155.639	45.428
87.000	310.865	302.485	295.013	307.952	314.899	315.472	315.735	300.336	288.471	309.933	229.170	263.786	108.776	117.108	124.437	110.901	103.858	103.309	103.571	118.779	130.763	109.015	188.919	155.401	43.759
88.000	311.175	302.413	294.989	307.689	314.947	315.759	316.164	300.456	288.304	309.432	229.361	264.478	108.561	116.917	124.246	110.901	103.882	103.476	103.548	118.683	130.596	109.086	188.919	154.971	38.209
89.000	311.056	302.724	295.418	308.167	315.281	315.830	315.759	300.121	288.256	309.981	229.313	265.362	108.370	116.702	124.126	110.972	103.667	103.213	103.548	118.564	130.739	108.967	188.967	154.040	35.457
