-----------------------------------------------------
BloodHound 307 VOC Analyser V2017.1
RoboScientific Ltd 
Espace North
Wisbech Road
Littleport
Cambridgeshire, UK
CB6 1RA 
-----------------------------------------------------
Date = 08/04/2022
Time = 11:27:59
Data is protected by RoboScientific Limited
-----------------------------------------------------
Name of the experiment = "47b_Day 25"
-----------------------------------------------------
Repeat No. = 2/4
-----------------------------------------------------
Experimental Time (in sec) and Flow Profile :
-----------------------------------------------------
Baseline = 2.00
Absorb = 4.00
Pause = 1.00
Desorb = 5.00
Flush = 20.00
Wait = 5.00
Higher Flow (V) = 4.00
Medium Flow (V) = 3.00
Low Flow (V) = 1.00
-----------------------------------------------------
Total Profile Time = 37 in sec
-----------------------------------------------------
Acquired data point per second = 4
--------------------------------------------------
Total data point stored  = 128
-----------------------------------------------------
Acquired sensor responses from 24 sensors
-----------------------------------------------------

Data Points	 Sen-1	 Sen-2	 Sen-3	 Sen-4	 Sen-5	 Sen-6	 Sen-7	 Sen-8	 Sen-9	 Sen-10	 Sen-11	 Sen-12	 Sen-13	 Sen-14	 Sen-15	 Sen-16	 Sen-17	 Sen-18	 Sen-19	 Sen-20	 Sen-21	 Sen-22	 Sen-23	 Sen-24	Humidity (%r.h.)
0.000	313.324	306.902	301.005	309.146	315.424	315.663	315.735	300.742	288.209	311.748	229.838	282.097	106.556	112.428	118.397	109.969	103.643	103.357	103.452	118.182	130.787	107.176	188.370	137.496	38.751
1.000	313.276	307.403	301.124	309.313	315.281	315.759	315.806	300.503	288.209	311.628	229.719	281.834	106.102	112.572	118.612	109.993	103.619	103.309	103.500	118.015	130.835	107.224	188.346	137.257	46.692
2.000	313.467	307.284	301.076	308.692	315.400	315.711	316.188	301.267	288.495	311.891	230.077	281.858	106.197	112.357	118.421	109.850	103.619	103.428	103.428	117.872	130.692	107.176	188.465	137.137	46.240
3.000	313.204	307.236	301.076	308.907	315.162	315.472	315.878	300.885	288.471	312.034	229.957	282.360	106.126	112.381	118.206	109.826	103.715	103.380	103.524	118.063	130.668	107.248	188.442	137.185	38.751
4.000	313.658	307.260	301.124	309.098	315.424	316.093	315.950	300.694	288.280	311.724	229.719	282.431	106.317	112.309	118.349	109.802	103.715	103.357	103.643	118.158	130.811	107.129	188.394	136.970	33.201
5.000	312.798	307.522	301.244	308.811	315.257	315.973	315.782	300.766	288.567	311.915	230.101	282.384	106.102	112.237	118.397	109.826	103.667	103.452	103.404	117.919	130.692	107.272	188.465	136.803	38.119
6.000	313.538	306.878	300.909	308.740	315.090	315.854	315.950	300.862	288.591	312.010	229.934	282.909	106.078	112.118	118.230	109.922	103.643	103.189	103.380	117.848	130.859	107.272	188.465	136.755	46.240
7.000	313.228	307.212	301.029	308.788	315.424	315.806	315.759	301.005	288.018	311.748	229.743	282.837	106.030	112.285	118.015	109.778	103.643	103.404	103.476	118.158	130.739	107.176	188.418	136.588	46.646
8.000	313.443	307.475	300.909	308.883	315.162	315.950	315.830	300.838	288.614	311.891	230.053	282.622	106.221	112.237	118.277	109.826	103.619	103.380	103.500	118.015	130.787	107.152	188.465	136.612	39.337
9.000	312.870	307.403	300.981	308.979	315.400	315.544	315.735	300.790	288.400	312.130	230.148	282.789	106.102	112.285	118.063	109.898	103.691	103.380	103.428	117.991	130.692	107.057	188.322	136.445	33.020
10.000	312.178	306.138	301.220	309.122	315.090	315.400	315.759	300.814	288.853	311.509	229.456	281.190	106.603	112.954	118.230	109.850	103.619	103.285	103.380	118.063	130.548	107.463	188.728	137.352	37.532
11.000	298.617	275.317	299.572	308.215	315.257	315.472	315.711	299.787	289.235	308.071	227.689	253.616	118.659	141.697	119.232	110.351	103.691	103.333	103.548	118.588	129.737	110.328	190.256	165.093	41.638
12.000	272.524	253.759	297.113	307.284	314.947	315.639	315.782	297.663	289.832	295.084	226.305	283.959	147.212	166.287	122.336	111.497	103.858	103.380	103.476	120.951	129.116	124.103	191.832	135.633	36.495
13.000	245.332	283.792	292.148	304.872	314.732	315.639	315.997	294.105	290.214	280.760	224.872	300.933	174.213	135.419	127.182	113.503	104.025	103.595	103.762	124.676	128.853	138.164	193.240	118.731	41.864
14.000	233.586	300.145	286.323	302.676	314.613	315.186	315.472	290.214	290.047	268.179	224.013	310.292	184.622	117.466	132.387	116.200	104.431	103.810	103.786	128.471	128.901	150.554	194.410	108.824	50.888
15.000	260.372	310.674	280.354	298.952	314.398	314.923	315.400	286.657	289.904	254.141	223.273	316.690	158.361	107.105	138.379	119.519	104.598	103.977	103.977	131.957	128.997	163.828	195.078	102.855	45.879
16.000	281.023	317.239	273.431	294.607	313.658	314.851	315.138	282.455	289.474	238.289	222.533	320.366	138.665	101.065	145.422	123.935	104.765	104.168	104.073	135.801	129.379	179.584	195.938	99.441	33.291
17.000	295.490	322.061	265.887	289.856	313.514	314.278	314.637	278.134	288.901	222.246	222.222	323.470	123.625	97.317	153.085	129.044	105.243	104.789	104.359	140.504	130.071	197.108	196.582	95.908	29.546
18.000	306.448	325.475	258.224	283.577	313.061	313.586	314.159	272.858	288.567	234.613	221.530	325.284	113.312	93.568	161.560	135.060	105.696	105.529	104.908	145.684	130.644	184.813	197.036	94.547	41.367
19.000	313.013	327.146	250.942	277.012	312.321	312.536	313.896	267.367	287.874	250.035	221.220	327.003	106.150	91.659	170.250	141.554	106.221	106.388	105.601	151.271	131.503	167.767	197.227	92.637	53.414
20.000	318.170	328.937	244.520	270.471	312.106	310.936	312.894	261.781	286.514	263.738	220.766	327.051	101.017	89.916	177.531	148.024	106.866	107.534	105.983	156.809	132.243	154.470	197.752	92.327	48.406
21.000	322.061	330.560	241.011	262.951	310.793	308.692	311.891	256.099	286.084	273.885	220.432	328.961	97.221	88.865	181.852	155.234	107.630	109.420	107.105	162.276	133.127	144.037	197.943	91.205	33.652
22.000	324.234	330.489	242.324	256.385	310.506	306.567	310.483	250.321	284.747	282.670	220.790	329.223	95.025	87.863	178.606	162.300	108.346	111.593	108.346	168.412	134.201	136.397	198.110	90.226	28.554
23.000	326.120	331.563	246.430	248.841	309.408	303.965	309.098	244.640	284.198	288.161	220.384	330.011	92.590	87.624	170.489	169.820	109.301	114.768	110.208	174.452	135.204	130.047	198.325	89.367	39.292
24.000	328.101	331.467	250.441	241.703	308.597	301.196	306.854	239.555	282.455	293.580	220.289	330.512	91.229	86.597	162.754	176.839	110.184	117.370	111.975	179.943	136.350	125.129	198.492	89.056	52.873
25.000	329.175	332.518	254.643	235.019	306.973	298.856	305.207	234.565	281.596	296.564	219.978	330.584	90.871	86.836	156.165	183.667	111.283	119.567	114.004	184.884	137.496	122.169	198.588	89.176	49.805
26.000	329.366	332.136	257.698	233.419	306.639	297.973	303.607	234.088	281.357	296.636	220.145	331.539	89.558	87.003	152.655	185.553	111.760	120.354	115.365	185.720	137.782	122.431	198.444	88.889	35.006
27.000	328.626	332.947	259.226	233.706	306.830	298.212	303.344	234.780	280.903	296.015	219.883	330.512	89.964	86.502	150.387	185.099	111.903	120.283	115.675	185.004	137.710	122.885	198.444	88.316	27.877
28.000	329.748	332.852	260.038	235.233	306.543	298.092	303.010	235.950	281.739	295.084	220.360	330.870	89.414	86.645	149.289	184.144	112.142	120.163	116.009	184.073	137.519	123.291	198.373	88.483	37.758
29.000	330.178	333.115	260.754	236.260	306.185	298.761	303.034	236.523	281.620	294.917	220.098	331.133	89.247	86.168	148.955	183.309	112.094	119.805	115.914	183.547	137.185	123.864	198.635	89.223	51.835
30.000	330.966	333.306	261.566	234.923	306.496	297.710	302.270	235.448	281.023	297.543	220.193	330.823	88.818	86.430	147.570	183.738	112.381	120.665	116.487	184.359	137.400	121.166	198.803	88.985	51.068
31.000	330.727	332.971	264.502	230.578	305.183	295.562	300.647	232.607	280.235	298.116	220.026	331.372	89.056	87.123	144.753	188.227	113.097	122.718	118.492	187.725	138.331	120.116	198.516	88.841	36.720
32.000	328.579	333.234	266.603	227.140	304.562	294.320	299.262	235.639	280.879	294.583	220.169	329.725	91.730	87.290	142.676	192.190	114.076	124.007	119.590	184.192	137.663	124.580	198.253	90.298	27.741
33.000	324.472	331.634	267.868	227.498	304.299	295.156	299.883	241.846	282.527	285.201	220.766	328.149	94.810	87.528	141.721	191.378	113.932	123.386	119.185	177.531	136.063	133.198	198.110	92.327	36.720
34.000	320.032	330.942	267.582	230.530	304.777	296.135	300.957	248.459	284.604	271.306	221.769	324.687	99.608	88.483	141.459	188.012	113.598	122.169	118.158	171.062	134.869	146.926	196.893	94.595	50.933
35.000	315.138	330.059	266.794	235.759	305.803	298.379	302.557	254.857	285.368	254.475	222.318	320.724	105.266	88.818	142.724	182.974	113.145	120.522	116.559	164.377	133.437	164.640	195.890	98.677	51.023
36.000	307.045	328.961	265.266	242.085	306.233	299.907	304.466	259.990	286.347	233.944	223.655	315.448	112.190	90.966	144.419	176.553	112.023	118.612	114.935	158.456	132.387	185.147	195.054	103.762	38.390
37.000	296.731	327.480	262.736	248.459	307.403	301.936	305.732	265.051	287.063	226.663	223.822	309.552	123.028	92.470	147.308	169.629	111.402	116.726	113.288	153.348	131.718	191.569	194.386	109.588	29.772
38.000	281.930	324.687	259.417	255.526	307.833	303.893	307.331	269.468	288.280	244.759	224.753	302.389	137.233	94.308	150.339	162.658	110.710	114.553	111.569	148.907	131.312	173.640	193.670	116.511	36.675
39.000	260.969	321.870	255.741	262.378	308.931	305.994	308.907	273.240	288.089	259.680	225.111	294.845	158.289	96.433	155.114	156.475	109.946	112.930	110.280	145.422	130.883	159.984	193.097	123.935	47.639
40.000	236.117	319.602	251.205	268.919	309.695	308.095	310.101	276.582	288.209	270.518	225.398	287.039	183.428	100.086	160.104	150.339	109.349	110.829	108.895	141.960	130.763	148.573	192.786	132.243	48.000
41.000	226.782	315.162	246.979	274.123	310.339	309.790	311.199	279.543	288.495	278.635	225.803	279.113	192.476	104.025	166.168	144.467	108.465	109.182	107.797	138.952	130.620	140.575	192.381	140.599	39.969
42.000	240.414	310.268	242.157	278.373	310.506	310.817	311.963	282.216	288.782	284.461	226.185	270.805	178.248	108.155	172.804	139.907	107.869	107.606	106.961	136.183	130.572	134.583	192.118	148.931	34.374
43.000	252.303	305.684	237.883	282.742	311.390	312.297	312.989	285.057	288.710	288.591	226.472	262.688	166.430	113.169	179.131	135.562	107.367	106.603	106.365	133.628	130.477	130.357	191.736	156.284	37.893
44.000	261.924	299.644	234.971	286.275	312.034	313.013	313.658	287.278	288.280	292.052	227.021	255.263	157.979	119.567	184.598	132.291	106.866	105.720	105.887	131.551	130.548	127.254	191.450	164.138	44.075
45.000	269.492	292.506	233.562	289.187	312.178	313.729	313.968	289.402	288.901	294.726	227.045	247.982	149.576	127.206	187.892	129.522	106.436	105.243	105.314	129.259	130.357	124.771	191.282	171.348	43.714
46.000	276.320	283.911	235.496	291.790	312.655	313.896	314.087	291.241	288.591	296.397	227.355	241.130	142.963	135.777	185.935	126.824	106.030	104.717	104.908	127.636	130.477	122.599	191.068	177.842	40.600
47.000	281.954	274.362	238.838	293.747	313.037	314.326	314.446	292.864	288.853	297.782	227.307	235.329	137.591	145.469	182.187	124.747	105.720	104.335	104.789	126.275	130.763	120.975	191.091	183.715	38.705
48.000	286.561	264.383	243.040	295.800	313.562	314.851	314.446	293.795	288.734	299.668	227.498	229.886	132.697	154.446	177.460	122.885	105.410	104.240	104.550	124.938	130.405	119.567	190.877	188.919	39.021
49.000	290.262	254.643	247.337	297.591	313.538	314.804	314.708	294.774	288.424	300.384	227.713	224.777	129.116	164.449	172.470	121.357	105.314	104.097	104.431	124.031	130.429	118.492	190.471	194.028	41.322
50.000	293.795	243.589	252.589	299.023	314.278	315.257	314.971	295.657	288.209	301.267	228.024	220.981	126.227	175.144	166.979	119.638	104.908	103.810	104.192	123.267	130.501	117.370	190.542	198.277	40.871
51.000	296.135	232.393	257.221	300.480	314.087	315.114	315.305	296.517	288.233	302.676	228.143	218.856	123.362	186.818	162.205	118.397	104.789	103.786	104.288	122.431	130.477	116.535	190.208	200.951	40.014
52.000	297.997	221.649	260.993	301.076	313.968	315.687	315.400	297.257	288.447	303.607	228.167	220.551	121.548	197.490	157.764	117.275	104.693	103.691	104.073	121.787	130.596	115.795	190.256	199.423	40.420
53.000	299.310	226.973	265.266	302.198	314.589	315.448	315.210	297.376	288.424	303.464	228.406	222.843	120.211	192.524	153.706	116.606	104.550	103.548	103.977	121.500	130.692	115.055	189.922	197.227	40.781
54.000	300.909	236.666	268.059	302.867	314.684	315.687	315.400	297.663	288.042	304.084	228.573	224.944	118.874	183.571	151.056	115.699	104.455	103.810	104.049	121.166	130.501	114.601	189.874	195.054	39.833
55.000	302.103	245.738	270.900	303.559	314.278	315.353	315.806	298.474	288.638	304.920	228.477	227.976	117.752	174.070	148.048	115.198	104.311	103.667	104.025	120.880	130.620	114.076	189.850	192.166	39.157
56.000	302.533	254.070	273.455	303.941	314.804	315.496	315.472	298.188	288.543	305.421	228.358	230.005	116.917	165.833	145.493	114.696	104.288	103.428	103.834	120.593	130.620	113.813	189.874	189.587	39.833
57.000	303.512	260.683	275.174	304.108	314.422	315.472	315.496	298.570	288.829	305.947	228.692	232.536	116.033	158.624	143.345	114.338	104.335	103.452	103.810	120.426	130.596	113.240	189.850	187.224	42.135
58.000	304.681	266.603	276.988	304.705	314.565	315.997	315.711	298.928	288.376	305.947	228.835	234.684	115.055	152.631	141.435	113.741	104.168	103.452	103.739	120.283	130.692	113.001	189.707	185.004	42.225
59.000	304.538	271.808	279.328	304.968	314.637	315.424	315.305	298.474	288.519	306.496	228.979	235.878	114.673	147.833	140.026	113.813	104.240	103.500	103.643	119.949	130.501	112.691	189.683	183.404	39.653
60.000	305.493	275.985	280.736	305.278	314.875	315.687	315.591	298.999	288.543	306.639	228.859	237.692	114.362	143.727	138.403	113.527	104.144	103.476	103.810	120.116	130.739	112.524	189.587	181.805	38.615
61.000	306.496	279.781	281.572	305.183	315.114	315.926	315.806	299.047	288.662	306.902	228.668	240.128	113.527	139.835	137.233	113.288	104.120	103.452	103.571	119.853	130.668	112.023	189.659	179.489	39.337
62.000	306.496	283.147	283.458	306.114	314.732	315.568	315.448	298.999	288.567	307.116	228.812	241.536	113.049	136.564	135.896	112.930	104.001	103.357	103.691	119.925	130.692	111.760	189.611	177.579	43.127
63.000	306.997	285.726	284.293	306.161	315.114	315.902	315.878	299.167	288.185	307.260	228.812	243.112	112.643	133.867	134.655	112.667	104.001	103.500	103.667	119.638	130.716	111.688	189.420	176.123	43.443
64.000	307.307	287.803	285.630	306.472	315.019	315.687	315.591	299.071	288.424	307.737	228.692	244.138	112.357	131.790	133.867	112.572	104.049	103.428	103.571	119.638	130.787	111.545	189.373	174.953	39.969
65.000	307.833	289.402	285.845	306.520	315.162	315.544	315.902	299.501	288.400	307.594	228.740	245.069	112.142	130.166	132.745	112.357	104.049	103.452	103.834	119.543	130.620	111.306	189.444	174.070	37.623
66.000	307.689	290.763	286.967	306.543	314.875	315.496	315.735	299.262	288.161	308.095	229.289	246.287	111.808	128.997	132.291	112.285	103.977	103.452	103.500	119.495	130.644	111.139	189.253	172.995	38.886
67.000	307.284	292.219	287.779	306.543	314.804	315.353	315.639	299.358	288.471	307.833	229.002	247.385	111.664	127.660	131.551	112.285	104.073	103.380	103.571	119.352	130.692	111.068	189.349	172.136	43.262
68.000	308.167	293.270	288.614	306.997	315.448	315.782	315.591	299.310	288.209	307.952	229.050	248.316	111.450	126.418	130.668	112.142	103.977	103.452	103.571	119.280	130.716	110.877	189.229	171.062	43.939
69.000	308.167	293.986	288.829	306.758	315.019	315.544	315.782	299.310	288.328	308.095	229.026	249.128	111.187	125.678	130.262	112.046	103.953	103.452	103.524	119.304	130.811	110.781	189.325	170.131	40.285
70.000	308.501	294.678	289.498	307.021	314.851	315.663	315.973	299.572	288.233	308.310	229.002	250.560	110.972	124.795	129.952	111.808	104.025	103.357	103.595	119.304	130.835	110.662	189.229	169.104	37.262
71.000	309.265	295.657	289.713	306.997	314.995	315.926	315.806	299.883	288.662	308.597	229.074	251.253	110.805	123.888	129.188	111.808	103.810	103.285	103.619	119.280	130.835	110.757	189.277	168.149	38.480
72.000	308.931	296.373	290.286	307.093	314.780	315.472	315.735	299.763	288.543	308.811	229.432	252.398	110.495	123.339	128.806	111.688	103.834	103.333	103.595	119.161	130.692	110.542	189.349	167.290	43.172
73.000	308.955	296.922	291.217	307.403	315.424	315.568	315.544	299.740	288.233	308.358	229.050	252.780	110.662	122.790	128.376	111.688	103.906	103.500	103.619	119.232	130.811	110.351	189.277	166.693	44.255
74.000	309.790	297.352	291.288	307.307	315.210	315.663	315.854	300.002	288.519	308.740	229.074	253.855	110.423	122.121	127.851	111.402	103.739	103.309	103.524	119.089	130.692	110.137	189.158	165.451	41.052
75.000	309.384	297.877	291.623	307.069	314.875	315.759	315.878	300.002	288.543	309.146	229.623	255.669	109.993	121.524	127.684	111.497	103.762	103.261	103.452	118.898	130.644	110.065	189.182	164.401	36.901
76.000	309.862	298.665	292.100	307.188	315.114	315.950	315.854	299.787	288.614	309.146	229.504	256.338	110.017	120.904	127.063	111.354	103.691	103.428	103.667	119.161	130.835	109.969	189.205	163.088	37.803
77.000	309.575	299.429	292.673	307.379	314.947	315.663	315.830	299.692	288.185	308.931	229.265	257.531	109.659	120.259	126.729	111.474	103.977	103.380	103.476	118.970	130.716	109.802	189.038	161.823	42.902
78.000	309.790	300.241	293.127	307.427	315.066	315.377	315.926	300.050	288.352	309.050	229.193	258.343	109.611	119.781	126.466	111.402	103.810	103.380	103.548	118.922	130.835	109.826	189.110	161.297	45.022
79.000	310.244	299.835	292.959	307.833	315.210	315.735	315.544	299.931	288.543	309.146	229.289	259.011	109.540	119.471	126.036	111.306	103.858	103.380	103.667	118.946	130.644	109.516	189.062	160.724	41.367
80.000	310.411	300.193	293.628	307.618	315.210	315.711	315.997	300.289	288.233	309.050	229.217	258.916	109.373	119.376	125.798	111.139	103.739	103.452	103.595	119.065	130.835	109.826	189.134	160.175	36.675
81.000	310.387	300.312	293.413	307.618	315.162	315.711	315.950	300.098	288.161	309.384	229.599	259.537	109.349	119.065	125.535	111.092	103.858	103.380	103.619	118.874	130.692	109.611	188.967	159.722	36.991
82.000	310.339	301.005	294.320	308.047	315.400	315.902	315.950	300.050	288.065	309.384	229.193	260.062	109.277	118.779	125.416	111.092	103.762	103.404	103.524	119.018	130.835	109.492	189.014	159.244	42.360
83.000	310.506	301.172	294.487	307.833	314.923	315.806	315.735	299.835	288.471	309.623	229.241	261.399	109.062	118.301	125.057	111.068	103.810	103.357	103.691	118.946	130.763	109.397	188.967	157.788	45.203
84.000	310.721	301.602	294.654	307.928	314.947	315.806	316.069	300.145	288.424	309.742	229.480	262.712	109.206	117.800	124.867	111.139	103.786	103.333	103.548	118.803	130.835	109.325	188.967	156.976	42.405
85.000	311.032	301.840	295.036	307.880	315.186	315.926	315.854	300.098	288.209	309.671	229.337	262.998	108.847	117.537	124.413	110.805	103.619	103.476	103.619	118.970	130.739	109.206	188.967	156.308	36.946
86.000	310.387	302.222	295.395	307.880	315.066	315.615	315.782	300.050	288.328	309.742	229.504	263.500	108.728	117.513	124.341	110.948	103.786	103.261	103.595	118.803	130.716	109.158	188.871	155.974	36.134
87.000	310.817	302.724	295.657	308.024	315.114	315.902	315.591	300.121	288.328	309.886	229.432	263.691	108.656	117.132	124.055	110.901	103.667	103.380	103.476	118.874	130.883	109.110	188.871	155.401	41.503
88.000	310.936	302.222	295.466	307.785	315.377	315.759	315.878	300.336	288.065	309.695	229.241	264.240	108.776	117.012	123.792	110.948	103.762	103.333	103.524	118.850	130.739	109.206	189.014	155.138	45.744
89.000	311.151	302.604	295.538	307.570	315.019	315.544	315.950	300.527	288.519	310.005	229.289	264.455	108.704	116.988	123.553	110.877	103.691	103.189	103.571	118.874	130.906	109.038	188.943	154.852	43.217
