-----------------------------------------------------
BloodHound 307 VOC Analyser V2017.1
RoboScientific Ltd 
Espace North
Wisbech Road
Littleport
Cambridgeshire, UK
CB6 1RA 
-----------------------------------------------------
Date = 04/02/2021
Time = 12:44:51
Data is protected by RoboScientific Limited
-----------------------------------------------------
Name of the experiment = "1727N"
-----------------------------------------------------
Repeat No. = 4/4
-----------------------------------------------------
Experimental Time (in sec) and Flow Profile :
-----------------------------------------------------
Baseline = 2.00
Absorb = 10.00
Pause = 1.00
Desorb = 5.00
Flush = 10.00
Wait = 5.00
Higher Flow (V) = 4.00
Medium Flow (V) = 3.00
Low Flow (V) = 1.00
-----------------------------------------------------
Total Profile Time = 33 in sec
-----------------------------------------------------
Acquired data point per second = 4
--------------------------------------------------
Total data point stored  = 112
-----------------------------------------------------
Acquired sensor responses from 24 sensors
-----------------------------------------------------

Data Points	 Sen-1	 Sen-2	 Sen-3	 Sen-4	 Sen-5	 Sen-6	 Sen-7	 Sen-8	 Sen-9	 Sen-10	 Sen-11	 Sen-12	 Sen-13	 Sen-14	 Sen-15	 Sen-16	 Sen-17	 Sen-18	 Sen-19	 Sen-20	 Sen-21	 Sen-22	 Sen-23	 Sen-24	Humidity (%r.h.)
0.000	316.570	304.371	314.971	315.496	312.607	314.971	315.138	315.377	313.538	312.369	315.066	315.711	103.142	115.365	104.407	103.906	106.723	104.144	104.216	103.739	105.648	106.699	103.691	103.667	32.208
1.000	316.785	303.989	314.493	314.923	312.130	315.162	315.711	315.520	313.538	312.440	315.233	315.615	102.855	115.460	104.431	103.953	106.794	104.120	104.240	103.715	105.553	106.603	103.619	103.643	27.967
2.000	316.881	304.252	314.875	315.162	312.154	314.923	315.233	315.448	314.064	312.560	315.281	315.472	103.166	115.484	104.550	104.025	106.723	103.977	104.120	103.571	105.434	106.723	103.691	103.762	43.849
3.000	316.952	304.228	315.066	315.305	312.249	315.305	315.591	315.591	313.538	312.273	314.851	315.400	103.118	115.365	104.407	103.953	106.723	103.953	104.144	103.595	105.434	106.651	103.548	103.715	53.189
4.000	316.570	304.419	315.377	315.305	312.416	315.329	315.400	315.329	313.562	312.178	315.019	315.687	103.094	115.341	104.479	103.834	106.556	103.858	104.144	103.667	105.481	106.675	103.571	103.739	40.375
5.000	316.332	304.538	315.138	314.899	312.273	314.971	314.923	315.496	313.682	312.154	314.971	316.021	103.166	115.413	104.550	104.001	106.747	103.858	104.144	103.595	105.648	106.723	103.762	103.810	26.839
6.000	316.666	303.750	315.138	315.329	312.345	315.305	315.353	315.663	313.753	312.631	315.329	315.759	103.189	115.436	104.502	104.097	106.961	104.073	104.168	103.524	105.362	106.556	103.619	103.691	34.961
7.000	316.236	304.657	315.400	314.899	312.225	314.660	314.875	315.281	313.586	312.464	315.114	315.257	103.094	115.222	104.455	104.097	106.842	104.049	104.073	103.571	105.410	106.508	103.643	103.691	51.339
8.000	316.857	303.941	315.019	315.424	312.560	314.971	315.233	315.329	313.801	312.583	315.400	315.424	103.046	115.317	104.526	103.977	106.818	104.049	104.120	103.643	105.505	106.627	103.619	103.667	48.587
9.000	317.048	304.156	314.637	314.804	312.416	315.042	315.353	315.687	313.753	312.106	315.138	315.878	102.975	115.365	104.359	103.882	106.675	104.120	104.144	103.548	105.434	106.508	103.548	103.691	31.802
10.000	316.188	304.299	315.186	314.756	312.416	315.162	315.353	315.711	313.825	312.345	314.899	315.687	103.022	115.222	104.383	103.929	106.579	103.953	104.049	103.524	105.410	106.460	103.595	103.619	27.967
11.000	316.332	304.228	314.923	314.708	311.891	315.019	315.066	315.186	313.538	312.488	315.281	315.544	103.261	115.246	104.502	103.929	106.723	103.953	104.120	103.524	105.410	106.723	103.667	103.643	44.255
12.000	316.188	302.366	314.756	314.398	311.700	314.756	314.923	315.544	312.942	311.987	315.042	315.305	102.903	117.012	104.598	104.144	107.343	104.311	104.383	103.667	106.030	107.248	103.691	103.858	53.144
13.000	316.761	299.358	314.183	314.732	311.390	315.042	314.517	315.496	312.345	310.865	314.469	314.947	103.142	119.877	105.004	104.383	108.083	104.550	104.598	103.739	106.794	108.036	103.906	104.168	39.924
14.000	316.379	296.851	313.992	314.087	310.220	314.469	314.398	315.114	311.199	309.957	314.541	314.732	103.261	123.315	105.290	104.646	108.847	104.598	105.028	104.001	108.251	109.182	104.359	104.550	26.523
15.000	316.355	293.270	314.016	314.350	309.289	313.729	313.801	314.899	309.337	308.453	313.920	314.111	102.951	126.180	105.481	104.765	109.611	105.052	105.505	104.216	109.707	110.328	104.789	104.980	36.946
16.000	316.284	289.569	313.395	313.944	308.358	313.610	312.464	314.589	307.594	307.236	313.013	313.586	102.903	129.928	105.863	105.147	110.710	105.625	106.675	104.264	111.497	111.784	105.529	105.577	52.106
17.000	315.973	285.821	312.607	313.371	306.973	312.655	311.008	314.517	305.684	306.161	312.655	312.440	102.879	133.652	106.388	105.243	111.641	106.365	108.131	104.622	113.264	113.192	106.365	106.484	46.195
18.000	316.499	281.930	312.607	313.276	306.138	311.772	309.146	313.920	303.583	304.443	311.414	311.963	103.166	137.830	106.842	105.744	112.763	107.057	110.089	105.099	116.081	114.887	107.606	107.534	29.591
19.000	316.427	277.919	311.939	312.727	304.896	310.960	307.140	313.228	300.503	302.604	310.005	310.172	102.760	141.220	107.296	106.150	113.885	108.203	112.405	105.577	118.445	116.439	108.895	108.919	30.719
20.000	316.451	274.290	311.509	312.010	303.822	310.005	304.562	312.846	297.543	300.480	307.904	308.979	102.831	145.613	107.869	106.627	115.055	109.158	114.577	106.078	121.429	118.468	110.686	110.184	47.368
21.000	316.546	270.423	311.008	311.915	302.533	308.811	301.888	312.249	294.678	298.713	306.329	307.331	103.094	149.504	108.251	107.176	116.272	110.423	117.490	106.842	124.652	120.307	112.691	111.903	50.346
22.000	316.761	266.293	310.459	311.270	301.960	307.188	298.928	311.628	291.241	296.779	303.989	305.708	103.118	153.419	108.919	107.439	117.275	111.641	120.498	107.487	128.137	122.622	114.792	113.741	35.186
23.000	316.833	262.521	309.814	310.769	300.790	305.851	295.800	310.745	287.874	294.535	301.411	303.631	102.855	156.738	109.492	108.036	118.349	113.216	123.267	108.203	131.169	124.437	117.084	115.413	28.509
24.000	316.284	259.632	309.193	310.077	299.549	304.371	292.530	309.671	284.651	292.649	298.832	301.458	103.118	159.984	109.993	108.537	119.232	114.768	126.943	109.420	134.678	126.562	119.805	117.466	40.916
25.000	316.642	256.242	308.692	309.623	298.379	302.437	289.402	308.835	281.094	290.644	296.230	299.238	102.998	163.303	110.495	109.134	120.307	116.559	129.928	110.471	138.164	128.471	122.312	119.567	51.158
26.000	316.976	253.974	307.928	308.692	297.663	300.599	285.869	307.642	278.492	289.211	293.700	297.424	103.070	166.191	111.211	109.683	121.262	118.421	133.365	111.569	141.506	130.548	125.105	121.858	41.954
27.000	316.355	251.205	307.140	308.167	296.779	298.617	282.933	306.281	274.863	286.848	290.930	295.753	102.855	169.009	111.903	110.710	122.527	120.522	136.636	112.619	144.419	132.482	128.066	124.079	29.727
28.000	317.239	248.555	306.878	307.522	295.872	296.684	280.116	305.445	271.975	284.651	288.065	293.198	103.022	171.181	112.405	111.211	123.458	122.575	139.525	113.718	147.140	134.344	130.716	126.012	34.645
29.000	316.236	246.311	305.994	306.520	294.487	294.511	276.558	304.156	268.967	282.885	285.415	291.121	102.855	173.544	113.121	112.023	124.461	124.461	142.604	114.911	150.125	136.111	133.294	128.042	47.052
30.000	316.714	244.425	305.756	306.018	293.771	292.434	273.980	302.676	266.603	281.214	282.789	289.140	102.736	175.383	113.932	112.930	125.678	126.609	145.517	116.320	152.966	137.997	135.944	130.119	47.368
31.000	316.427	242.634	304.657	305.350	292.291	290.142	270.781	301.148	263.882	279.495	280.307	286.824	102.998	177.627	114.744	113.574	126.657	128.853	148.716	117.848	155.496	139.668	138.498	131.981	35.637
32.000	316.045	240.891	303.798	304.204	291.288	288.328	267.940	299.740	261.327	277.466	277.466	285.105	103.046	179.393	115.413	114.338	127.684	130.883	151.318	119.185	157.860	141.506	141.029	134.082	31.080
33.000	316.260	238.838	303.321	303.917	290.906	286.084	265.696	298.164	258.868	275.675	275.269	283.291	102.879	181.208	116.320	115.102	128.710	132.888	153.944	120.665	160.080	143.345	143.607	136.015	41.593
34.000	316.642	237.549	302.342	302.557	289.259	284.174	262.664	296.994	257.173	274.386	272.763	281.070	103.022	182.736	117.251	116.368	129.999	135.251	156.905	122.049	162.587	144.920	145.947	137.854	48.677
35.000	316.761	235.974	301.387	301.626	287.970	282.264	260.181	295.442	254.905	272.834	270.877	279.304	102.927	184.264	118.301	117.346	131.241	137.257	159.507	123.506	164.496	146.353	148.119	139.764	41.142
36.000	317.048	234.613	299.525	300.312	286.681	280.068	257.507	294.129	252.995	271.640	269.038	277.824	102.998	185.768	119.352	118.182	132.315	138.856	161.799	125.153	166.597	148.167	150.387	141.793	31.667
37.000	316.785	233.228	299.071	299.525	285.511	278.444	255.359	292.386	251.038	269.993	266.579	276.248	102.879	186.914	120.426	119.113	133.509	140.575	164.019	126.442	168.436	149.241	151.987	142.891	37.126
38.000	316.881	232.011	297.997	298.522	284.222	276.845	253.234	290.930	249.486	268.776	264.311	274.004	103.022	188.322	121.476	120.187	134.822	142.533	166.215	128.209	170.465	150.745	154.183	144.849	46.601
39.000	316.499	230.888	296.875	297.782	283.267	274.935	251.157	289.569	247.218	266.770	262.592	272.954	103.046	189.492	122.575	121.238	136.135	144.443	168.412	129.593	171.993	152.130	156.093	146.496	44.300
40.000	316.523	229.504	295.538	296.493	281.978	273.479	249.390	288.185	246.024	265.863	260.969	271.139	103.118	190.566	123.912	122.384	137.567	146.305	170.369	131.097	173.879	153.467	157.836	148.095	35.276
41.000	316.785	228.453	294.416	295.705	280.665	271.831	247.648	286.394	243.947	264.168	259.202	269.444	102.998	191.641	125.225	123.577	138.880	147.690	172.112	132.554	175.216	154.637	159.507	149.528	33.878
42.000	316.928	227.642	292.816	294.368	279.065	269.754	245.833	285.344	242.921	263.356	257.675	268.083	103.333	192.763	126.442	124.604	140.026	149.265	173.807	134.153	176.600	156.021	161.321	151.223	42.856
43.000	316.761	226.878	291.933	292.959	277.680	268.012	244.544	283.744	241.321	261.828	255.645	266.746	102.760	193.574	127.898	126.012	141.435	151.127	175.407	135.538	178.152	157.143	162.921	152.655	46.150
44.000	316.785	226.329	290.381	291.718	276.296	266.555	242.849	281.930	240.199	260.897	254.571	265.314	102.903	194.410	129.044	127.111	142.939	152.607	176.887	136.851	179.489	158.504	164.473	153.801	39.743
45.000	317.048	225.278	288.734	290.763	274.696	264.932	241.011	281.118	239.196	259.704	252.948	263.714	103.022	195.174	130.525	128.257	144.299	154.159	178.176	138.283	180.802	159.626	166.096	155.425	33.517
46.000	316.761	224.705	287.421	289.235	273.455	263.309	239.746	279.328	237.501	258.749	251.778	262.903	102.998	195.842	131.742	129.355	145.684	155.639	179.608	139.644	181.972	160.629	167.361	156.761	38.615
47.000	316.761	224.204	286.227	288.042	271.903	261.876	238.433	278.015	236.356	257.364	250.202	261.470	102.951	196.463	133.174	130.763	147.093	157.215	181.065	141.220	183.165	161.632	168.698	157.907	45.248
48.000	316.570	223.297	284.890	286.728	270.375	260.420	237.645	276.773	235.401	256.290	248.770	260.396	102.664	196.988	134.368	132.005	148.549	158.624	181.900	142.557	183.977	162.873	170.202	159.149	42.721
49.000	317.000	223.368	283.959	285.726	269.349	259.370	236.403	275.460	234.947	256.170	247.863	258.964	102.903	197.490	135.944	133.318	150.053	160.223	183.142	143.798	185.051	163.637	171.253	160.390	35.367
50.000	316.355	223.297	283.888	286.060	269.325	259.465	237.215	275.794	234.804	255.717	247.863	259.346	102.831	197.203	135.920	133.031	150.101	160.032	183.046	143.655	185.075	163.518	170.990	160.008	36.359
51.000	316.427	223.440	283.744	286.132	269.540	259.608	237.191	275.985	235.257	256.266	248.149	259.537	103.166	196.773	135.848	132.864	150.029	159.674	182.616	143.273	184.693	163.327	170.704	159.722	43.578
52.000	316.952	223.750	283.697	286.323	269.635	259.775	237.669	276.248	235.162	256.194	248.985	260.086	102.927	196.749	135.872	132.673	149.838	159.435	182.425	143.225	184.502	163.064	170.441	159.316	44.526
53.000	316.833	223.965	283.792	286.681	269.492	260.277	237.239	276.176	235.281	256.624	248.674	260.014	102.903	196.678	135.896	132.530	149.838	159.340	182.449	143.034	184.288	163.160	170.560	159.364	38.344
54.000	317.191	223.512	283.052	285.750	268.537	258.844	236.570	275.460	234.875	256.099	247.743	258.820	103.213	196.964	136.755	133.580	150.769	160.414	183.261	143.822	185.195	163.756	171.420	160.462	34.554
55.000	317.024	236.141	286.227	288.495	274.434	266.245	247.648	280.068	245.690	264.168	257.531	269.229	102.975	184.288	133.365	130.262	145.016	153.133	172.327	139.286	173.759	155.162	161.823	150.650	40.149
56.000	316.499	253.425	291.957	293.700	282.980	276.821	262.425	287.660	260.802	275.221	270.136	281.548	102.855	165.881	127.397	125.034	136.135	142.581	156.857	131.408	158.122	143.058	148.215	137.018	46.827
57.000	316.928	272.213	298.737	300.193	292.219	287.683	278.039	295.968	277.466	288.065	284.031	294.368	102.998	148.024	120.713	118.946	127.278	131.599	141.721	123.028	142.079	131.193	134.702	124.556	42.586
58.000	316.284	286.251	303.631	304.848	299.668	296.755	289.928	302.413	289.474	296.875	294.726	303.512	103.094	134.774	115.866	114.601	120.140	123.339	130.381	117.155	130.954	123.004	125.129	116.224	30.358
59.000	316.666	295.299	307.331	308.501	304.466	302.557	297.639	306.615	297.448	303.297	301.769	308.644	103.237	125.821	112.428	111.235	115.389	117.442	122.527	112.787	122.742	116.654	117.681	110.757	32.705
60.000	316.499	300.432	309.408	309.719	306.925	305.541	302.294	309.528	302.007	306.472	305.780	311.438	103.142	119.949	110.017	109.229	112.333	113.670	117.609	109.898	117.418	112.739	113.049	107.725	48.000
61.000	316.642	303.846	310.888	311.366	308.811	307.928	305.254	310.960	304.944	309.217	308.907	313.300	103.189	116.439	108.776	107.869	110.304	111.402	114.505	108.036	114.386	110.375	109.993	106.269	51.158
62.000	316.809	305.899	311.748	312.321	310.650	309.337	306.973	312.297	306.949	310.578	310.697	313.849	103.070	114.434	107.821	107.176	109.038	109.922	112.619	106.866	112.405	108.776	108.203	105.266	36.089
63.000	316.546	307.642	312.201	312.321	310.841	310.244	308.095	313.180	308.811	311.987	312.297	314.398	103.070	112.810	107.343	106.579	108.370	109.110	111.354	105.983	111.068	107.725	106.675	104.717	26.929
64.000	316.332	308.644	312.560	313.133	311.199	310.841	308.931	313.920	309.313	311.987	312.798	314.851	103.189	111.855	106.890	106.030	107.654	108.179	110.638	105.338	110.184	107.057	105.577	104.288	39.563
65.000	316.594	308.859	312.607	313.347	311.963	311.533	309.361	314.111	309.552	312.345	313.777	314.971	103.166	111.187	106.699	105.959	107.415	107.701	110.017	104.789	109.444	106.556	104.980	104.001	53.234
66.000	316.164	309.074	312.942	313.491	311.987	311.963	309.456	314.374	310.459	313.347	314.469	315.520	103.142	110.996	106.436	105.648	107.009	107.224	109.444	104.335	109.038	106.269	104.526	103.906	44.210
67.000	316.284	309.026	312.846	313.586	312.034	312.297	310.029	314.923	310.793	313.204	314.422	315.544	103.213	110.805	106.365	105.434	106.890	107.009	109.325	104.264	108.752	106.006	104.120	103.691	28.283
68.000	317.119	308.907	312.703	313.801	312.464	312.631	310.459	315.424	311.223	313.133	314.923	315.353	102.903	110.805	106.412	105.195	106.723	106.627	109.253	104.073	108.513	105.935	103.882	103.571	31.261
69.000	317.167	308.644	312.870	314.231	312.583	313.109	310.626	315.233	311.318	313.419	314.875	315.305	102.998	110.781	106.221	104.980	106.579	106.436	109.182	103.882	107.916	105.625	103.786	103.786	48.226
70.000	316.952	308.549	312.798	313.992	313.252	313.228	310.530	315.496	311.390	313.371	314.875	315.377	103.046	110.924	106.150	104.837	106.436	106.221	109.062	103.929	107.845	105.672	103.643	103.571	51.429
71.000	316.737	308.525	313.085	314.040	312.560	313.562	310.674	315.687	311.652	313.276	314.828	315.591	103.022	111.235	106.030	104.765	106.221	105.696	108.680	103.762	107.749	105.720	103.595	103.619	35.998
72.000	316.761	308.000	313.013	314.302	313.109	313.825	310.841	315.448	311.605	313.276	314.923	315.329	103.213	111.569	106.030	104.502	106.150	105.481	108.370	103.715	107.558	105.863	103.619	103.667	26.704
73.000	316.379	307.809	313.395	314.350	312.798	313.944	311.103	315.520	311.676	313.300	315.353	315.711	103.070	111.832	105.911	104.359	106.126	105.290	108.203	103.691	107.487	105.744	103.428	103.428	39.788
74.000	316.594	307.642	313.825	314.732	312.894	314.111	311.700	315.400	311.867	313.013	315.090	315.305	103.070	112.261	105.648	104.359	106.102	105.004	107.773	103.500	107.009	105.911	103.810	103.786	53.189
75.000	316.857	307.475	313.801	314.541	313.085	314.398	311.867	315.663	312.154	312.846	315.138	315.591	102.807	112.667	105.457	104.097	106.197	104.956	107.439	103.619	107.200	106.006	103.452	103.667	42.902
76.000	316.546	306.902	313.801	314.708	312.870	314.422	312.297	315.305	312.106	312.894	315.400	315.711	103.166	113.121	105.362	104.144	106.197	104.693	107.129	103.595	107.176	106.197	103.595	103.691	27.471
77.000	316.618	306.018	314.302	314.923	312.822	314.756	313.133	315.448	312.058	312.774	315.042	315.353	103.261	113.455	105.314	104.097	106.197	104.574	106.508	103.595	106.961	106.174	103.619	103.834	32.524
78.000	316.523	305.660	314.111	314.851	312.464	314.804	313.133	315.520	312.679	312.918	315.233	315.615	102.927	113.861	105.266	104.025	106.269	104.407	106.221	103.715	106.794	106.317	103.595	103.548	49.218
79.000	316.546	306.138	314.589	315.019	312.703	314.637	313.682	315.329	312.583	312.965	315.066	315.472	102.975	114.171	105.243	104.097	106.317	104.550	105.672	103.476	106.627	106.269	103.643	103.739	50.888
80.000	317.143	305.159	314.302	314.756	312.488	314.684	313.705	315.615	312.989	312.965	315.257	315.591	103.070	114.458	105.099	103.953	106.341	104.288	105.553	103.619	106.651	106.579	103.739	103.691	34.464
81.000	316.594	305.254	314.660	315.042	312.822	314.899	313.801	315.233	312.822	312.536	315.257	315.830	102.975	114.482	104.908	103.977	106.460	104.383	105.362	103.643	106.460	106.317	103.643	103.571	27.065
82.000	316.666	304.872	314.159	314.995	312.416	315.066	314.398	315.615	312.560	312.679	315.496	315.377	103.189	114.744	104.956	104.025	106.412	104.216	105.099	103.619	106.388	106.508	103.643	103.691	41.232
83.000	317.048	304.825	314.493	314.923	312.273	314.780	314.422	315.591	313.419	312.631	314.947	315.568	102.879	114.744	104.837	104.049	106.484	104.240	105.099	103.619	106.293	106.436	103.667	103.667	53.279
84.000	316.570	305.063	314.660	314.971	312.297	314.660	314.255	315.568	313.204	312.870	315.186	315.472	103.046	114.887	104.598	103.882	106.460	104.240	105.028	103.834	106.341	106.436	103.571	103.762	42.856
85.000	316.403	304.443	314.183	314.684	312.369	314.971	314.828	315.448	313.013	312.488	315.162	315.735	103.118	114.935	104.932	104.001	106.675	104.216	104.765	103.595	106.245	106.675	103.739	103.762	27.335
86.000	316.332	304.395	314.899	315.066	312.536	315.090	314.374	315.329	313.037	312.512	315.042	315.424	103.022	115.078	104.884	103.953	106.556	104.120	104.693	103.715	106.126	106.508	103.476	103.548	33.517
87.000	317.096	304.610	314.637	314.851	312.631	315.329	315.019	315.472	313.085	312.321	314.875	315.305	103.094	115.031	104.861	103.882	106.603	104.216	104.670	103.762	106.174	106.747	103.715	103.667	50.572
88.000	316.546	304.586	314.660	314.756	312.178	315.090	314.613	315.639	313.252	312.392	314.899	315.448	103.046	115.126	104.646	104.025	106.556	104.240	104.526	103.643	105.887	106.484	103.691	103.810	49.489
89.000	316.809	304.275	314.350	314.660	312.607	314.947	314.756	315.472	313.371	312.751	315.162	315.639	103.094	115.150	104.717	104.144	106.699	104.264	104.670	103.739	106.030	106.412	103.571	103.691	31.847
