-----------------------------------------------------
BloodHound 307 VOC Analyser V2017.1
RoboScientific Ltd 
Espace North
Wisbech Road
Littleport
Cambridgeshire, UK
CB6 1RA 
-----------------------------------------------------
Date = 04/02/2021
Time = 12:27:56
Data is protected by RoboScientific Limited
-----------------------------------------------------
Name of the experiment = "2047N"
-----------------------------------------------------
Repeat No. = 3/4
-----------------------------------------------------
Experimental Time (in sec) and Flow Profile :
-----------------------------------------------------
Baseline = 2.00
Absorb = 10.00
Pause = 1.00
Desorb = 5.00
Flush = 10.00
Wait = 5.00
Higher Flow (V) = 4.00
Medium Flow (V) = 3.00
Low Flow (V) = 1.00
-----------------------------------------------------
Total Profile Time = 33 in sec
-----------------------------------------------------
Acquired data point per second = 4
--------------------------------------------------
Total data point stored  = 112
-----------------------------------------------------
Acquired sensor responses from 24 sensors
-----------------------------------------------------

Data Points	 Sen-1	 Sen-2	 Sen-3	 Sen-4	 Sen-5	 Sen-6	 Sen-7	 Sen-8	 Sen-9	 Sen-10	 Sen-11	 Sen-12	 Sen-13	 Sen-14	 Sen-15	 Sen-16	 Sen-17	 Sen-18	 Sen-19	 Sen-20	 Sen-21	 Sen-22	 Sen-23	 Sen-24	Humidity (%r.h.)
0.000	316.714	304.228	315.138	315.090	312.154	314.995	315.639	315.854	313.538	312.130	315.019	315.400	103.261	115.389	104.526	103.953	107.129	104.240	104.216	103.595	105.481	106.651	103.786	103.929	32.930
1.000	317.096	304.490	314.899	314.875	312.106	315.066	315.066	315.663	313.825	312.512	315.162	315.568	103.118	115.604	104.550	104.097	106.914	104.144	104.264	103.715	105.577	106.723	103.739	103.810	27.290
2.000	316.427	304.156	315.138	314.875	312.034	315.281	315.424	315.281	313.658	312.321	315.257	315.663	103.046	115.484	104.431	103.977	106.890	104.001	104.240	103.786	105.672	106.747	103.643	103.762	41.864
3.000	316.403	304.108	314.422	314.708	312.273	315.353	315.210	315.520	313.920	312.488	315.544	315.806	102.760	115.460	104.550	104.025	106.938	104.097	104.168	103.643	105.529	106.747	103.619	103.834	53.505
4.000	317.024	304.299	314.851	314.899	312.130	315.233	315.400	315.711	313.777	312.130	314.804	315.448	102.903	115.651	104.598	103.977	106.890	104.120	104.144	103.571	105.505	106.651	103.595	103.810	43.037
5.000	316.642	304.037	314.899	314.828	312.178	315.472	315.424	315.687	313.682	312.512	315.114	315.711	102.998	115.795	104.765	104.025	107.009	104.049	104.097	103.667	105.553	106.770	103.643	103.786	27.877
6.000	316.618	304.132	315.090	314.851	312.130	315.090	315.138	315.520	314.016	312.130	315.114	315.663	102.951	115.484	104.693	104.240	106.914	104.001	104.073	103.524	105.648	106.842	103.691	103.810	32.118
7.000	316.737	303.917	314.947	314.684	312.154	314.923	315.305	315.472	313.634	312.416	315.066	315.090	102.998	115.627	104.502	104.073	106.890	104.025	104.288	103.762	105.601	106.866	103.667	103.691	49.444
8.000	316.761	303.965	314.708	314.541	311.987	315.305	315.448	315.615	313.562	312.058	315.114	315.520	102.927	115.604	104.479	104.144	107.105	104.097	104.025	103.571	105.553	106.842	103.643	103.619	50.662
9.000	316.499	304.180	315.138	314.684	312.106	315.066	315.448	315.520	313.753	312.583	315.138	315.806	103.022	115.508	104.479	104.049	106.985	104.049	104.168	103.595	105.386	106.675	103.715	103.786	34.870
10.000	316.594	304.490	315.329	314.589	312.249	315.233	315.233	315.568	313.610	312.154	315.114	315.759	103.118	115.126	104.526	103.929	106.770	104.025	104.311	103.524	105.505	106.651	103.595	103.739	26.749
11.000	316.618	303.965	314.851	314.947	312.058	315.257	315.186	315.377	313.347	312.201	315.400	315.400	102.951	115.699	104.646	103.906	106.818	104.001	104.216	103.834	105.696	106.818	103.691	103.524	39.427
12.000	316.403	302.557	314.207	314.565	311.318	314.995	314.971	315.186	313.085	311.843	315.090	315.210	103.046	117.418	104.861	104.192	107.439	104.264	104.479	103.643	106.317	107.439	103.810	103.739	52.963
13.000	316.570	299.405	314.183	314.947	311.008	314.804	314.684	315.281	312.297	310.888	314.732	314.851	103.022	120.140	105.123	104.311	108.036	104.479	104.670	103.834	107.200	108.370	104.025	104.120	44.887
14.000	316.618	296.445	313.419	314.207	310.053	314.469	314.350	315.472	311.079	309.528	314.374	314.732	103.237	123.171	105.481	104.717	109.086	104.789	105.123	104.025	108.298	109.325	104.359	104.526	28.824
15.000	316.427	293.365	313.825	314.111	308.716	313.896	313.443	315.019	309.361	308.286	313.873	314.350	103.118	126.227	105.768	105.004	110.089	105.314	105.720	104.097	109.635	110.495	104.980	105.052	30.764
16.000	316.523	289.928	313.276	313.992	308.238	313.276	312.440	314.613	307.689	307.260	313.156	313.538	103.166	129.856	106.341	105.457	111.163	105.839	106.842	104.288	111.283	112.023	105.696	106.030	47.188
17.000	316.857	286.466	312.727	313.371	306.734	312.679	311.127	314.589	305.851	305.398	312.249	312.560	103.237	133.604	106.747	105.601	112.118	106.460	108.227	104.741	113.407	113.312	106.556	106.699	52.151
18.000	316.403	282.073	312.392	312.965	306.066	311.772	309.026	314.064	303.201	303.893	311.127	311.676	103.046	137.567	107.343	105.863	113.049	107.200	110.113	105.123	115.986	115.126	107.940	107.749	38.525
19.000	316.833	278.253	311.843	312.321	304.801	311.151	307.069	313.682	300.456	302.222	309.599	310.148	103.285	141.315	107.487	106.174	114.076	108.251	112.691	105.601	118.731	116.726	109.038	108.847	27.020
20.000	317.048	274.195	311.390	312.154	303.870	310.148	304.490	312.846	297.495	300.289	308.024	308.859	103.070	145.159	107.964	106.651	115.293	109.397	115.055	106.150	121.500	118.636	110.853	110.256	37.217
21.000	316.164	270.208	310.936	311.772	302.748	308.406	301.626	312.178	294.463	298.235	305.851	306.973	102.951	149.098	108.609	107.224	116.415	110.542	117.633	106.985	124.795	120.665	112.428	111.784	51.294
22.000	317.048	266.961	309.838	310.841	301.148	307.379	298.952	311.891	291.312	296.493	303.774	305.445	102.975	152.894	109.182	107.725	117.609	112.094	120.784	107.654	128.066	122.670	114.816	113.741	47.098
23.000	316.761	263.165	309.170	310.315	300.360	306.018	295.753	310.721	288.233	294.416	301.244	303.321	103.166	156.547	109.778	108.418	118.683	113.240	123.888	108.298	131.384	124.962	117.418	115.866	32.208
24.000	316.714	259.895	309.170	310.124	299.143	304.108	292.219	309.671	284.580	292.315	298.904	301.721	102.927	159.746	110.232	108.871	119.662	114.983	127.063	109.301	134.607	126.562	119.590	117.490	30.133
25.000	317.167	256.767	308.310	309.313	298.259	302.389	289.187	309.384	281.643	290.620	295.944	298.952	103.046	162.658	110.853	109.611	120.808	116.750	130.357	110.280	137.782	128.471	122.169	119.471	44.165
26.000	316.618	254.165	307.952	308.764	297.591	300.671	285.988	307.379	278.039	288.877	293.580	297.495	102.855	166.000	111.521	109.922	121.620	118.397	133.700	111.664	141.196	130.668	124.986	121.667	50.707
27.000	316.642	251.157	307.260	308.047	296.612	298.832	282.933	306.448	275.174	286.776	290.859	295.395	102.975	168.865	112.214	110.877	122.909	120.426	136.588	112.381	144.180	132.697	128.161	124.055	39.833
28.000	316.809	248.674	306.376	307.642	295.466	297.137	279.710	305.374	272.022	284.604	288.185	293.437	103.022	171.133	112.691	111.545	123.768	122.503	139.931	113.789	147.666	134.535	130.644	125.893	29.276
29.000	317.048	246.382	305.994	306.376	294.058	294.535	276.224	303.798	269.587	283.100	285.606	290.930	103.309	173.425	113.407	112.237	124.819	124.365	142.867	114.983	150.339	136.421	133.294	128.066	37.668
30.000	316.308	244.783	305.016	305.421	293.007	292.100	273.383	302.771	266.388	281.118	282.551	288.877	102.879	175.359	114.195	113.312	126.084	126.538	145.660	116.153	152.727	138.164	136.374	130.501	48.857
31.000	316.379	242.706	304.514	305.087	292.267	290.405	270.566	301.172	264.096	279.328	280.211	286.896	102.903	177.627	114.864	113.646	126.967	128.973	148.859	117.824	155.472	139.931	138.427	132.220	44.797
32.000	317.191	240.772	303.488	304.156	290.906	288.829	268.465	300.121	261.661	277.776	277.728	285.057	103.213	179.465	115.818	114.768	128.185	131.097	151.748	119.137	158.003	141.602	141.124	134.273	33.291
33.000	316.117	239.005	302.437	303.201	290.071	286.347	264.813	298.474	259.083	275.627	275.126	283.124	102.807	181.232	116.630	115.508	129.068	133.007	154.207	120.426	160.247	143.440	143.512	136.326	32.614
34.000	316.976	237.406	301.793	301.984	288.662	283.792	262.258	297.090	256.743	274.362	273.503	281.405	103.094	182.879	117.490	116.702	130.286	135.037	157.191	122.049	162.539	144.992	145.947	138.164	43.578
35.000	317.048	235.472	300.718	301.506	287.898	282.575	259.847	295.347	255.025	272.643	270.566	279.304	102.855	184.479	118.468	117.442	131.479	137.114	159.483	123.625	164.759	146.758	148.215	139.883	48.045
36.000	316.976	234.279	299.549	300.384	286.418	280.426	257.507	293.986	252.900	271.473	268.585	277.489	102.807	185.792	119.590	118.683	132.912	139.000	162.085	124.843	166.597	148.191	150.387	141.936	40.285
37.000	316.666	232.870	298.522	299.644	285.535	278.755	255.454	292.601	250.823	269.850	266.579	275.771	102.951	187.391	120.545	119.495	133.962	140.933	164.640	126.633	168.650	149.695	152.416	143.655	31.892
38.000	316.928	231.676	297.615	298.068	283.840	276.535	253.067	291.408	249.176	268.346	264.526	273.885	103.118	188.776	121.811	120.402	135.084	142.270	166.621	128.042	170.417	151.318	154.613	145.469	37.126
39.000	316.976	230.602	296.493	297.257	282.718	274.863	250.942	289.593	247.242	266.985	263.118	272.428	102.975	189.874	123.052	121.667	136.517	144.467	168.770	129.570	172.208	152.607	156.451	147.164	45.970
40.000	316.809	229.504	295.108	296.111	281.691	273.431	249.032	288.113	246.096	265.791	260.563	270.805	103.118	190.972	124.174	122.837	137.710	146.042	170.656	131.241	173.879	153.873	158.361	148.621	44.706
41.000	316.355	228.310	294.487	295.156	280.092	271.521	247.146	286.514	244.258	264.359	258.606	269.158	103.094	192.214	125.416	123.983	139.167	147.952	172.518	132.625	175.598	155.114	159.984	150.172	35.682
42.000	316.737	227.666	292.625	293.914	278.683	269.659	245.260	285.415	242.276	262.831	257.436	267.558	103.261	193.121	126.514	124.890	140.527	149.623	174.213	134.058	176.863	156.523	161.632	151.796	34.103
43.000	317.024	226.902	291.551	292.673	277.633	268.179	243.518	283.315	241.250	261.709	255.550	266.221	102.998	194.195	127.970	126.203	141.769	151.103	175.932	135.586	178.367	157.573	163.374	153.228	42.135
44.000	317.215	225.851	290.524	291.766	275.818	266.603	242.372	282.121	239.841	260.635	253.783	264.526	102.903	195.031	129.283	127.445	143.130	152.775	177.412	137.114	179.823	158.838	165.117	154.756	46.105
45.000	317.048	224.944	288.782	290.238	274.625	264.956	240.748	281.047	238.480	259.131	252.255	263.714	102.998	195.747	130.453	128.615	144.467	154.446	178.868	138.570	181.160	160.295	166.621	156.045	40.285
46.000	316.952	224.252	287.492	288.949	273.264	263.333	239.507	279.543	237.406	257.889	251.085	261.876	102.927	196.367	131.814	129.928	145.971	155.997	180.229	139.859	182.211	161.035	167.958	157.358	33.968
47.000	317.048	223.726	286.156	288.113	271.975	262.139	238.265	278.015	236.332	257.054	249.414	260.635	102.569	197.060	133.151	130.906	147.284	157.263	181.542	141.124	183.500	162.276	169.223	158.552	37.532
48.000	316.523	222.676	284.819	286.728	270.614	260.468	236.952	276.391	234.923	256.170	248.340	259.250	103.094	197.657	134.655	132.220	148.835	158.982	182.640	142.533	184.550	163.327	170.560	159.841	44.661
49.000	316.594	222.772	283.434	285.606	269.444	259.179	235.830	275.436	233.825	255.335	247.122	258.009	102.712	198.086	135.992	133.485	150.244	160.414	183.691	143.846	185.672	164.329	171.802	160.868	43.578
50.000	317.096	222.915	283.506	285.941	269.062	259.370	236.379	275.484	234.660	255.788	247.290	258.558	102.903	197.681	136.254	133.461	150.530	160.319	183.667	143.727	185.481	164.234	171.778	160.820	36.991
51.000	316.737	223.607	283.673	285.988	269.086	259.680	236.690	275.842	234.708	255.502	247.743	258.749	102.927	197.442	135.968	133.270	150.339	160.008	183.428	143.368	185.219	163.852	171.420	160.557	35.231
52.000	317.215	223.488	283.959	286.251	269.516	260.157	236.833	276.415	234.804	255.884	247.934	259.011	102.855	197.275	135.968	133.007	150.172	159.698	183.213	143.130	185.051	163.780	170.966	160.342	41.548
53.000	316.308	223.655	284.150	286.370	269.898	260.062	236.475	275.771	235.281	255.979	248.149	259.298	102.736	197.179	135.920	132.840	150.101	159.746	183.213	143.321	185.075	163.589	171.109	160.247	45.157
54.000	316.976	222.867	283.004	285.535	268.322	259.155	236.356	275.293	234.111	254.977	246.836	258.629	102.855	197.824	136.636	133.795	151.056	160.677	183.906	144.156	185.577	164.329	172.136	161.130	40.104
55.000	316.905	235.042	285.845	288.519	274.076	265.433	246.215	279.352	244.568	262.879	255.979	267.725	102.998	186.221	133.867	131.050	145.589	154.135	174.094	140.074	175.598	156.714	163.804	152.416	34.464
56.000	316.666	252.589	291.670	293.509	282.503	275.747	260.993	287.206	260.181	274.744	269.372	280.665	103.094	168.292	128.113	125.702	137.257	144.013	159.483	132.411	160.032	145.159	150.339	139.143	37.577
57.000	316.570	269.874	298.164	299.095	290.835	285.965	275.603	294.774	275.030	286.323	282.121	292.530	102.831	150.435	121.357	119.686	128.066	132.936	144.013	124.723	144.299	133.246	136.899	126.156	46.827
58.000	316.905	284.270	303.177	304.061	298.641	295.323	288.424	301.506	287.946	295.729	293.198	302.198	102.807	135.729	116.177	115.174	120.713	124.055	131.456	117.657	131.623	123.410	125.607	117.012	47.413
59.000	316.905	293.914	306.830	307.522	303.822	301.673	296.612	306.424	296.540	302.246	300.742	307.928	103.142	126.943	112.858	111.879	116.009	118.421	123.673	113.360	123.864	117.346	118.397	111.545	34.690
60.000	316.642	299.549	309.146	309.814	306.734	305.445	301.888	308.907	301.291	306.185	305.660	311.342	103.213	121.142	110.495	109.540	112.834	114.243	118.516	110.471	118.373	113.264	113.670	108.179	27.922
61.000	316.737	303.130	310.578	311.008	309.002	307.642	304.825	310.793	304.848	308.811	308.644	312.846	103.237	116.964	109.038	108.322	110.877	111.975	115.198	108.465	114.935	110.662	110.495	106.532	40.826
62.000	316.737	305.517	311.366	311.939	310.005	308.811	306.472	312.178	306.925	310.483	310.602	313.777	103.285	114.816	107.964	107.224	109.301	110.208	113.097	107.129	112.834	108.967	108.274	105.338	52.963
63.000	316.427	307.188	312.201	312.512	310.745	310.029	308.191	313.013	308.143	311.461	311.915	314.493	103.237	113.073	107.487	106.842	108.585	109.206	111.736	106.078	111.378	107.964	107.081	104.908	44.120
64.000	316.499	307.904	312.846	313.204	311.342	311.223	308.644	313.658	309.146	312.130	312.822	314.875	103.142	112.142	106.914	106.341	108.060	108.537	110.877	105.529	110.423	107.296	105.911	104.431	28.554
65.000	316.594	308.597	312.679	313.156	311.581	311.438	309.480	314.374	309.910	312.679	313.634	315.257	103.261	111.450	106.675	105.863	107.367	107.749	110.137	104.861	109.659	106.866	105.266	104.144	30.719
66.000	316.475	309.002	313.300	313.538	312.369	311.939	309.671	314.302	310.053	312.560	314.135	315.377	102.951	111.163	106.556	105.672	107.272	107.439	109.707	104.622	109.086	106.221	104.741	103.953	47.233
67.000	315.997	309.098	313.133	313.777	312.201	312.201	309.719	314.565	310.411	313.085	314.398	315.353	103.094	110.996	106.603	105.529	107.129	107.129	109.420	104.192	108.895	106.078	104.288	103.882	52.106
68.000	316.737	308.764	312.822	313.896	312.392	312.512	310.053	314.971	310.506	313.156	314.493	315.711	103.046	111.020	106.436	105.171	106.651	106.675	109.373	104.168	108.537	106.054	104.001	103.643	37.126
69.000	316.666	309.074	313.419	313.920	312.416	312.965	310.196	315.305	311.008	313.443	315.042	315.448	103.285	111.044	106.221	105.171	106.603	106.412	109.253	103.953	108.203	105.863	103.858	103.595	26.433
70.000	316.379	308.620	313.109	313.944	313.013	313.180	310.220	315.233	311.103	313.180	315.162	315.854	103.118	111.306	106.317	104.980	106.532	106.054	109.110	103.882	108.083	105.863	103.691	103.667	36.991
71.000	316.069	308.764	313.801	314.231	312.751	313.133	310.077	315.233	311.390	313.443	314.899	315.400	103.070	111.402	106.221	104.717	106.269	105.839	108.967	103.858	107.869	105.768	103.595	103.619	52.331
72.000	316.332	308.501	313.133	314.446	312.727	313.443	310.530	315.329	311.891	313.371	315.042	315.233	103.094	111.426	106.174	104.717	106.293	105.553	108.609	103.715	107.749	106.054	103.810	103.810	47.278
73.000	316.403	307.570	313.705	314.637	313.061	314.016	310.841	315.424	311.509	312.870	315.066	316.164	103.213	112.023	106.102	104.693	106.365	105.314	108.418	103.404	107.582	105.911	103.691	102.903	30.358
74.000	316.475	307.642	314.016	314.684	312.870	313.753	310.888	315.377	311.724	312.846	314.875	315.568	102.927	112.309	105.768	104.502	106.269	105.219	108.107	103.619	107.487	105.983	103.667	103.762	28.915
75.000	316.523	307.355	313.896	314.469	312.703	314.183	311.652	315.353	311.963	312.918	315.281	315.472	103.142	112.763	105.720	104.335	106.245	104.932	107.582	103.571	107.224	106.102	103.571	103.619	45.157
76.000	316.427	306.925	313.705	314.422	312.560	314.541	312.154	315.424	312.010	313.085	315.568	315.615	103.046	113.216	105.410	104.359	106.269	104.837	107.176	103.691	107.272	106.365	103.619	103.595	53.189
77.000	316.642	306.018	314.207	314.804	312.345	314.708	312.774	315.591	312.106	312.751	315.042	315.496	103.166	113.622	105.410	104.216	106.388	104.646	106.794	103.571	106.961	106.221	103.691	103.691	40.149
78.000	315.950	305.684	313.920	314.446	312.488	314.422	312.751	315.353	312.607	312.774	315.138	315.735	103.142	113.932	105.314	104.288	106.412	104.479	106.341	103.643	106.723	106.508	103.643	103.882	26.704
79.000	316.236	305.565	314.493	314.828	312.440	315.066	313.061	315.281	312.464	312.464	315.496	316.069	103.333	114.147	105.219	104.216	106.627	104.717	106.030	103.643	106.723	106.532	103.691	103.834	35.412
80.000	316.690	305.469	314.326	314.875	312.464	314.708	313.634	315.377	312.512	312.989	315.281	315.424	102.975	114.386	105.028	104.335	106.627	104.502	105.744	103.548	106.627	106.412	103.619	103.619	51.023
81.000	316.809	305.445	314.159	314.637	312.273	314.660	313.944	315.424	312.774	312.416	314.995	315.305	103.094	114.720	104.980	104.120	106.627	104.598	105.529	103.595	106.484	106.484	103.619	103.739	49.128
82.000	316.523	304.825	314.493	315.042	312.536	314.780	314.326	315.854	312.798	312.225	315.042	315.472	103.333	114.935	105.004	104.144	106.699	104.359	105.314	103.739	106.508	106.556	103.643	103.691	32.885
83.000	316.857	304.872	314.231	314.660	312.178	315.257	314.756	315.257	313.037	312.631	315.353	315.759	103.166	114.887	105.052	104.168	106.699	104.335	105.075	103.619	106.269	106.627	103.715	103.906	27.471
84.000	317.406	304.443	314.541	314.923	312.655	315.066	314.947	315.806	312.703	312.082	315.019	315.735	103.094	114.911	104.908	104.001	106.842	104.455	105.052	103.500	106.269	106.603	103.667	103.715	41.774
85.000	316.737	304.848	314.231	315.257	312.440	315.066	314.493	315.186	312.822	312.273	315.162	315.210	103.142	115.150	104.956	104.120	106.699	104.264	104.813	103.619	106.388	106.723	103.834	103.739	53.414
86.000	316.642	304.323	314.469	315.138	312.679	315.305	314.660	315.806	313.324	312.703	315.281	315.496	103.118	115.150	105.004	104.097	106.818	104.144	104.789	103.595	106.054	106.699	103.643	103.882	42.676
87.000	316.642	304.323	314.708	315.042	312.082	315.090	314.828	315.377	312.894	312.392	315.305	315.735	103.189	115.293	104.956	104.144	106.818	104.240	104.813	103.571	106.150	106.723	103.619	103.667	27.516
88.000	316.379	304.443	314.326	314.780	312.297	315.019	314.756	315.186	312.774	312.178	315.210	315.448	103.142	115.365	104.813	104.001	106.770	104.288	104.765	103.619	106.102	106.747	103.595	103.571	32.118
89.000	316.284	304.108	314.684	314.851	312.392	315.162	314.780	315.305	312.965	312.512	315.496	315.997	103.118	115.246	104.956	104.359	106.985	104.383	104.550	103.524	105.887	106.556	103.786	103.929	49.308
