-----------------------------------------------------
BloodHound 307 VOC Analyser V2017.1
RoboScientific Ltd 
Espace North
Wisbech Road
Littleport
Cambridgeshire, UK
CB6 1RA 
-----------------------------------------------------
Date = 04/02/2021
Time = 12:28:33
Data is protected by RoboScientific Limited
-----------------------------------------------------
Name of the experiment = "2047N"
-----------------------------------------------------
Repeat No. = 4/4
-----------------------------------------------------
Experimental Time (in sec) and Flow Profile :
-----------------------------------------------------
Baseline = 2.00
Absorb = 10.00
Pause = 1.00
Desorb = 5.00
Flush = 10.00
Wait = 5.00
Higher Flow (V) = 4.00
Medium Flow (V) = 3.00
Low Flow (V) = 1.00
-----------------------------------------------------
Total Profile Time = 33 in sec
-----------------------------------------------------
Acquired data point per second = 4
--------------------------------------------------
Total data point stored  = 112
-----------------------------------------------------
Acquired sensor responses from 24 sensors
-----------------------------------------------------

Data Points	 Sen-1	 Sen-2	 Sen-3	 Sen-4	 Sen-5	 Sen-6	 Sen-7	 Sen-8	 Sen-9	 Sen-10	 Sen-11	 Sen-12	 Sen-13	 Sen-14	 Sen-15	 Sen-16	 Sen-17	 Sen-18	 Sen-19	 Sen-20	 Sen-21	 Sen-22	 Sen-23	 Sen-24	Humidity (%r.h.)
0.000	316.737	304.204	314.947	314.923	312.178	315.138	315.329	315.639	313.849	312.416	315.138	315.568	103.380	115.508	104.574	104.144	106.914	104.144	104.216	103.595	105.553	106.770	103.643	103.810	31.892
1.000	316.737	303.965	314.613	314.804	312.297	315.281	315.377	315.806	313.658	312.416	315.400	315.544	102.927	115.580	104.717	104.120	107.009	104.120	104.168	103.643	105.648	106.770	103.595	103.715	27.877
2.000	316.690	304.180	315.305	315.090	312.631	315.257	315.281	315.400	313.538	312.201	314.995	315.591	102.879	115.460	104.550	103.977	106.794	104.144	104.359	103.667	105.529	106.723	103.595	103.691	42.315
3.000	316.737	303.822	314.875	314.971	312.106	314.923	315.257	315.687	313.873	312.679	315.042	315.353	103.261	115.460	104.670	104.049	106.938	104.073	104.216	103.619	105.457	106.747	103.715	103.619	53.369
4.000	316.475	304.156	314.851	314.684	312.058	315.400	315.329	315.377	313.610	312.488	315.233	315.520	103.022	115.556	104.550	104.001	106.985	104.049	104.120	103.548	105.625	106.723	103.739	103.715	42.902
5.000	317.310	304.180	314.493	315.019	312.201	315.114	315.520	315.854	313.777	312.058	315.090	315.400	102.903	115.723	104.574	104.049	106.890	104.144	104.192	103.715	105.553	106.866	103.643	103.667	28.012
6.000	316.785	303.750	314.732	314.995	312.560	315.424	315.496	315.639	313.419	312.345	315.138	315.472	103.142	115.556	104.502	104.025	106.842	104.001	104.192	103.786	105.672	106.866	103.667	103.595	32.028
7.000	316.546	304.132	315.305	314.804	312.154	314.947	315.090	315.448	313.777	312.583	315.496	315.663	102.903	115.699	104.574	104.049	106.866	104.120	104.192	103.619	105.553	106.890	103.619	103.667	48.316
8.000	316.570	304.037	315.281	315.042	312.082	315.400	315.520	315.615	313.634	312.273	315.329	315.735	103.046	115.604	104.598	103.929	106.770	103.977	104.288	103.810	105.625	106.890	103.667	103.667	51.655
9.000	316.905	303.703	314.517	314.708	312.154	315.090	315.353	315.568	313.873	312.583	315.186	315.544	102.975	115.627	104.455	104.097	106.890	104.001	104.216	103.500	105.457	106.723	103.643	103.595	36.540
10.000	317.000	304.514	314.780	315.257	312.369	315.090	315.305	315.663	313.682	312.273	315.162	315.639	103.213	115.246	104.407	103.977	106.842	104.168	104.192	103.524	105.434	106.627	103.619	103.762	26.433
11.000	316.833	303.798	314.541	314.637	312.154	315.233	315.400	315.902	313.753	312.416	315.042	315.400	103.094	115.436	104.502	103.858	107.081	104.216	104.383	103.667	105.553	106.651	103.548	103.810	37.848
12.000	316.952	302.103	314.637	314.851	311.509	314.756	314.899	315.568	312.918	311.414	315.114	315.520	102.998	117.490	104.789	104.049	107.391	104.168	104.383	103.810	106.412	107.391	103.762	103.977	52.828
13.000	316.905	299.453	314.255	314.278	310.674	314.565	315.186	315.711	312.106	310.865	314.756	314.971	103.022	120.235	105.147	104.383	108.251	104.431	104.622	103.810	107.200	108.227	104.097	104.192	45.654
14.000	316.546	296.612	314.183	314.302	309.886	314.231	314.278	315.162	310.865	309.719	314.493	314.875	102.975	123.243	105.314	104.598	109.038	104.837	104.980	103.977	108.179	109.373	104.168	104.526	29.276
15.000	316.523	293.007	313.610	314.111	309.122	314.087	313.682	314.804	309.241	308.358	314.231	314.278	103.166	126.323	105.696	104.980	109.731	105.052	105.601	104.216	109.492	110.542	105.028	105.195	30.088
16.000	316.952	289.617	313.013	314.016	308.453	313.228	312.440	314.589	307.809	307.212	313.324	313.347	103.046	129.856	106.150	105.147	110.996	105.815	106.794	104.479	111.402	111.999	105.601	105.672	45.879
17.000	316.881	286.036	312.703	313.300	307.284	312.488	311.175	314.565	305.875	305.756	312.273	312.369	102.998	133.628	106.579	105.696	111.855	106.317	108.274	104.837	113.574	113.336	106.436	106.651	52.422
18.000	316.857	282.384	312.512	313.156	305.899	312.010	309.050	314.016	303.679	304.443	311.008	311.509	103.070	137.519	107.200	105.815	113.192	107.248	110.256	105.171	115.986	114.959	107.511	107.630	39.157
19.000	316.069	277.943	312.034	312.942	304.586	310.769	306.734	313.347	300.336	302.724	310.124	310.769	103.094	141.626	107.487	106.197	114.147	108.131	112.524	105.672	118.850	116.917	109.086	108.967	27.155
20.000	316.499	273.956	311.414	312.536	303.750	309.814	304.323	312.751	297.448	300.336	308.358	308.931	102.951	145.278	108.131	106.747	115.150	109.206	114.720	106.150	121.500	118.731	110.805	110.519	36.404
21.000	316.236	270.256	311.103	311.748	302.413	308.501	301.745	312.106	294.320	298.498	305.923	306.878	102.831	149.265	108.609	107.057	116.200	110.399	117.633	106.842	124.652	120.617	112.381	111.760	50.707
22.000	317.239	266.675	310.339	311.366	301.602	307.475	298.665	311.390	291.408	296.540	304.108	305.374	103.261	153.013	109.182	107.558	117.513	111.808	120.784	107.582	128.185	122.790	114.792	113.718	47.549
23.000	316.690	262.951	309.838	310.936	300.671	305.780	295.538	310.817	287.851	294.344	301.506	303.535	103.189	156.881	109.755	108.298	118.755	113.407	123.816	108.346	131.456	124.890	117.299	115.627	33.156
24.000	316.737	259.656	308.883	310.411	299.596	304.323	292.625	309.599	284.580	292.601	299.119	301.745	102.807	159.937	110.351	108.800	119.734	114.935	126.943	109.158	134.464	126.609	119.734	117.728	29.321
25.000	316.690	256.576	308.167	309.361	298.426	302.318	289.044	308.740	281.333	290.572	296.230	299.310	102.927	162.801	110.853	109.325	120.713	116.511	130.214	110.471	138.116	128.710	122.312	119.447	42.180
26.000	316.761	253.616	307.880	308.907	297.519	300.623	286.060	307.689	278.110	288.471	293.389	296.970	103.142	165.953	111.426	110.041	121.667	118.468	133.652	111.378	141.315	130.525	125.177	121.715	50.933
27.000	316.737	251.515	307.451	308.358	296.206	298.617	282.694	306.543	274.887	286.561	290.596	295.180	102.927	168.746	111.927	110.853	122.837	120.378	136.827	112.596	144.658	132.745	127.898	123.673	41.954
28.000	317.000	248.746	306.949	307.713	295.466	296.684	279.734	305.278	272.213	284.508	287.874	292.983	102.807	171.253	112.667	111.545	124.150	122.670	139.907	113.598	147.212	134.320	130.620	126.180	30.268
29.000	316.332	246.884	305.612	306.305	294.177	294.368	276.200	304.180	269.062	282.885	285.678	291.312	102.807	173.258	113.455	112.428	124.819	124.485	142.867	115.102	150.029	136.350	133.365	128.209	34.058
30.000	316.976	244.258	305.326	305.899	293.150	292.458	273.503	302.676	266.508	281.047	282.670	288.686	102.903	175.550	114.171	113.049	125.941	126.633	145.947	116.487	152.966	138.140	135.968	130.190	46.511
31.000	316.475	242.181	304.490	305.159	292.291	290.238	270.972	301.554	263.905	279.304	280.187	286.800	103.070	177.722	114.864	113.741	126.920	128.877	148.859	117.776	155.496	139.955	138.665	132.363	47.910
32.000	316.499	240.868	303.750	304.538	291.264	288.185	267.606	299.549	261.470	277.513	277.633	284.795	102.855	179.393	115.818	114.864	128.042	130.716	151.485	118.946	157.764	141.864	141.482	134.416	37.352
33.000	316.499	238.791	303.082	303.703	289.999	285.965	265.075	298.450	259.179	275.651	275.245	283.315	102.855	181.279	116.439	115.436	129.211	133.079	154.422	120.498	160.271	143.631	143.870	136.206	30.810
34.000	316.690	237.454	301.626	302.270	288.686	284.031	262.258	296.851	256.505	273.956	273.001	281.381	103.046	182.855	117.490	116.391	130.095	134.941	156.952	122.193	162.587	145.183	145.923	138.069	39.472
35.000	316.881	235.854	300.599	301.220	287.469	281.930	259.608	295.586	254.834	272.882	270.829	279.256	102.998	184.550	118.468	117.418	131.503	137.018	159.555	123.553	164.687	146.926	148.382	140.146	48.045
36.000	316.905	234.470	299.644	300.384	286.442	279.925	257.364	294.511	252.804	271.258	268.800	277.585	103.046	185.887	119.376	118.421	132.721	139.071	162.276	125.010	166.717	148.215	150.530	141.841	43.443
37.000	316.785	233.109	298.832	299.596	285.583	278.564	255.239	292.554	251.038	269.444	266.102	275.794	103.094	187.296	120.713	119.495	133.962	140.886	164.568	126.681	168.579	149.790	152.631	143.631	33.923
38.000	316.785	231.629	297.830	298.164	283.983	276.248	252.900	291.002	248.770	268.083	264.383	273.861	102.998	188.489	121.811	120.378	135.228	142.652	166.693	128.161	170.489	151.032	154.350	145.254	33.968
39.000	316.618	230.363	296.469	297.400	282.384	274.601	250.823	289.617	247.266	266.818	262.521	272.190	102.736	189.683	123.004	121.620	136.445	144.252	168.627	129.570	172.112	152.775	156.570	146.878	43.217
40.000	316.666	229.862	295.013	296.087	281.190	273.431	248.865	288.256	245.523	265.600	260.874	270.757	102.736	190.900	124.079	122.646	137.663	146.138	170.632	131.265	173.998	154.016	158.289	148.573	46.692
41.000	317.024	228.453	294.177	295.156	280.474	271.640	247.290	286.657	244.640	264.383	258.773	268.919	102.855	192.046	125.201	123.768	138.976	147.737	172.566	132.816	175.669	155.353	160.151	150.101	39.788
42.000	316.976	227.594	293.150	294.105	278.922	269.945	245.499	284.962	243.040	262.616	257.078	267.606	102.903	193.073	126.681	125.057	140.551	149.552	174.285	134.082	177.197	156.523	161.823	151.844	33.111
43.000	316.952	226.472	291.646	292.745	277.275	267.940	243.732	283.888	241.035	261.470	255.407	266.126	102.975	194.004	128.113	126.275	141.817	151.199	175.860	135.514	178.439	157.645	163.255	153.228	37.713
44.000	316.785	225.398	290.142	291.527	276.176	266.508	242.205	281.930	239.984	260.539	253.879	264.884	102.831	194.816	129.188	127.373	142.939	152.679	177.269	137.066	179.799	158.958	164.974	154.565	45.112
45.000	316.976	225.087	288.949	290.405	274.577	265.362	240.963	280.760	238.814	259.799	252.327	263.237	103.022	195.675	130.644	128.543	144.538	154.398	178.916	138.427	181.208	160.151	166.550	156.021	43.353
46.000	317.645	224.514	287.564	289.164	273.264	263.500	239.292	279.638	237.287	258.582	250.966	262.019	102.998	196.463	131.957	129.784	146.018	156.021	180.181	139.907	182.425	161.035	167.863	157.358	36.043
47.000	317.000	223.368	286.156	288.209	272.261	261.900	238.361	278.086	236.308	257.221	249.820	260.587	102.760	197.012	133.031	130.883	147.236	157.167	181.423	141.435	183.571	162.372	169.414	158.671	35.141
48.000	317.143	223.010	284.842	286.681	270.518	260.253	236.881	276.511	234.899	256.027	248.316	259.584	103.022	197.370	134.535	132.172	148.788	158.910	182.425	142.724	184.622	163.374	170.560	159.746	42.180
49.000	316.690	222.628	283.792	286.036	269.277	259.059	236.284	275.436	234.135	255.239	247.504	258.152	102.951	198.015	135.777	133.246	149.981	160.319	183.619	143.965	185.577	164.329	171.921	160.892	45.067
50.000	316.785	222.843	283.338	285.654	268.991	259.107	236.308	275.603	234.111	255.717	247.576	258.629	102.975	197.895	136.135	133.461	150.387	160.319	183.595	143.774	185.481	164.114	171.635	160.772	40.239
51.000	316.881	223.321	283.386	286.203	269.301	259.561	236.403	276.129	234.804	255.598	247.648	258.844	103.166	197.466	136.039	133.151	150.268	159.865	183.285	143.512	185.242	163.947	171.372	160.319	34.509
52.000	316.857	223.392	283.052	285.797	269.158	259.775	236.905	276.081	234.947	256.218	248.006	259.179	102.736	197.179	135.968	133.007	150.196	159.722	183.165	143.345	184.956	163.780	171.181	160.223	37.758
53.000	316.379	223.392	283.625	286.084	269.492	260.062	236.547	276.176	234.780	255.550	247.576	259.537	102.855	197.131	135.872	133.222	150.316	159.817	183.118	143.201	185.075	163.541	171.181	160.319	44.571
54.000	316.833	223.225	282.646	285.105	268.227	258.629	235.830	275.054	234.398	255.263	246.931	257.985	102.760	197.394	136.636	133.724	151.151	160.677	183.619	144.228	185.433	164.305	172.112	160.915	43.894
55.000	316.690	235.448	286.179	288.304	273.932	265.672	246.478	279.519	245.117	263.523	256.051	267.988	102.975	185.147	133.485	130.835	145.589	153.968	173.449	139.668	174.619	155.926	162.587	151.581	37.713
56.000	317.000	253.330	292.243	293.819	282.861	276.367	261.661	287.254	260.611	275.174	269.969	281.309	103.022	167.672	127.779	125.344	136.517	143.154	158.433	132.124	159.507	144.872	149.934	138.546	33.111
57.000	316.785	271.808	298.952	299.811	291.981	287.397	277.107	295.538	276.511	287.206	283.816	293.938	103.118	149.862	121.453	119.590	127.684	132.172	142.915	124.007	143.559	132.602	136.135	125.821	39.788
58.000	316.642	284.986	303.535	304.347	299.119	295.968	288.805	301.793	288.519	295.991	293.509	302.867	103.022	135.466	116.129	114.720	120.259	123.577	131.002	117.299	131.479	123.601	125.320	116.272	50.166
59.000	316.045	294.058	306.973	307.689	303.846	301.936	296.779	306.257	296.708	302.604	301.172	308.477	103.022	126.299	112.667	111.760	115.532	117.824	123.124	113.001	123.267	116.988	117.991	110.924	45.203
60.000	316.809	300.527	309.384	310.148	307.045	305.851	301.817	309.026	301.721	306.233	305.493	311.079	103.118	120.665	110.375	109.468	112.715	114.314	118.158	110.184	118.277	113.288	113.431	107.916	30.404
61.000	316.475	303.750	310.650	311.294	308.859	307.570	304.801	310.936	304.896	308.883	308.525	312.942	102.998	116.941	108.943	107.869	110.614	111.617	114.959	108.322	114.935	110.781	110.447	106.412	30.088
62.000	316.714	305.684	311.915	312.058	310.292	309.217	306.615	312.130	306.758	310.029	310.315	313.729	103.118	114.673	107.916	107.176	109.277	110.280	113.097	107.105	112.834	108.943	108.227	105.219	45.383
63.000	316.594	307.260	312.392	312.727	310.793	310.315	307.904	313.061	308.000	311.461	311.987	314.398	102.998	113.097	107.343	106.460	108.442	109.158	111.593	106.221	111.402	107.892	106.938	104.574	52.738
64.000	316.523	308.095	312.273	312.774	311.390	311.079	308.955	313.729	309.098	311.915	312.727	314.589	103.070	111.975	107.009	106.269	107.940	108.442	110.662	105.434	110.280	107.129	105.935	104.335	40.330
65.000	316.475	308.740	312.679	313.061	311.724	311.438	309.408	314.422	309.862	312.679	313.896	315.448	102.807	111.521	106.818	105.935	107.439	107.821	110.041	104.980	109.659	106.651	105.195	104.073	26.749
66.000	316.308	309.289	312.870	313.491	312.130	311.819	309.480	314.493	310.220	312.870	314.446	315.639	103.094	111.115	106.508	105.553	107.105	107.487	109.778	104.741	109.182	106.269	104.693	104.073	34.645
67.000	316.666	308.883	312.846	313.491	312.201	312.392	309.981	314.637	310.483	312.727	314.398	315.615	102.998	110.924	106.484	105.529	107.057	107.081	109.444	104.264	108.752	106.102	104.240	103.810	51.023
68.000	316.952	308.859	312.822	313.801	312.727	312.655	310.196	315.042	310.912	312.918	314.541	315.782	102.903	110.996	106.412	105.195	106.794	106.699	109.253	104.120	108.537	106.102	104.073	103.762	49.083
69.000	316.308	308.907	313.467	313.944	312.631	313.300	310.339	315.066	310.841	313.109	314.828	315.663	103.309	110.996	106.293	105.290	106.723	106.436	109.134	103.929	108.370	106.030	103.906	103.762	32.299
70.000	316.952	308.692	313.037	313.992	312.846	312.989	310.411	315.878	311.581	313.300	314.947	315.424	102.903	110.996	106.150	104.908	106.484	106.150	109.110	104.025	107.940	105.839	103.643	103.571	27.741
71.000	316.284	308.740	313.276	314.326	312.894	313.634	310.387	315.114	311.175	313.180	315.138	315.878	102.998	111.330	106.102	104.813	106.317	105.696	109.110	103.834	107.892	105.959	103.619	103.667	43.127
72.000	316.714	308.406	313.801	314.398	312.846	313.801	310.411	315.281	311.557	312.989	314.732	315.544	103.094	111.664	105.983	104.765	106.245	105.434	108.561	103.500	107.725	106.030	103.858	103.571	53.369
73.000	316.928	307.856	313.610	314.302	313.013	314.064	310.912	315.472	311.963	313.228	315.138	316.212	102.998	111.879	105.911	104.526	106.197	105.457	108.418	103.595	107.630	106.006	103.548	103.380	41.683
74.000	316.642	307.833	313.825	314.637	313.419	314.135	311.270	315.281	311.772	312.989	315.353	315.615	103.189	112.428	105.768	104.479	106.269	105.219	108.012	103.643	107.320	105.959	103.667	103.810	27.155
75.000	316.761	306.949	313.705	314.517	312.607	314.278	311.963	315.663	312.297	312.989	315.186	315.496	103.189	112.596	105.720	104.335	106.197	105.004	107.678	103.571	107.200	106.078	103.619	103.691	33.336
76.000	316.618	306.305	313.682	314.660	312.751	314.565	312.034	315.711	312.201	312.894	315.114	315.424	102.855	113.097	105.386	104.264	106.341	104.813	107.272	103.619	107.152	106.174	103.762	103.667	49.669
77.000	316.881	305.970	313.944	314.828	312.965	314.493	312.703	315.663	312.416	313.300	315.257	315.759	102.998	113.479	105.314	104.240	106.317	104.622	106.747	103.524	107.009	106.365	103.691	103.786	50.617
78.000	316.857	305.469	313.920	314.851	313.037	314.660	312.942	315.496	312.225	312.512	315.138	315.759	103.118	113.885	105.338	104.073	106.484	104.670	106.341	103.595	106.747	106.221	103.500	103.643	34.915
79.000	316.451	305.827	314.517	314.875	312.679	314.493	313.252	315.281	312.225	312.392	315.353	315.520	102.927	114.123	105.123	104.097	106.460	104.574	105.935	103.548	106.699	106.388	103.715	103.977	26.749
80.000	316.523	305.636	314.613	314.660	312.392	314.637	313.753	315.687	312.607	312.488	315.353	315.568	103.046	114.362	105.219	104.216	106.508	104.383	105.601	103.524	106.699	106.508	103.691	103.739	39.788
81.000	316.666	305.374	314.780	314.923	312.727	314.851	313.873	315.353	312.392	312.130	314.995	315.400	103.285	114.625	105.123	104.001	106.532	104.407	105.505	103.619	106.365	106.603	103.667	103.762	53.234
82.000	316.546	305.159	314.589	314.589	312.416	314.947	314.016	315.353	312.655	312.249	314.851	315.950	102.879	114.816	105.075	104.192	106.651	104.288	105.028	103.571	106.532	106.508	103.667	103.691	44.932
83.000	316.833	304.753	314.207	315.090	312.440	314.804	314.493	315.639	312.774	312.010	314.899	315.687	103.118	114.911	104.932	104.097	106.770	104.455	105.075	103.524	106.293	106.556	103.667	103.834	29.140
84.000	316.308	304.490	314.350	314.804	312.201	314.565	314.207	315.496	313.228	312.655	315.520	315.902	103.022	115.007	105.075	104.049	106.699	104.264	104.837	103.619	106.388	106.794	103.762	103.762	29.997
85.000	316.618	304.825	314.684	314.971	312.321	314.995	314.517	315.448	312.894	312.249	315.138	315.520	103.046	115.031	104.908	104.049	106.723	104.264	104.837	103.667	106.126	106.508	103.595	103.715	46.782
86.000	316.117	304.801	314.732	314.708	312.201	314.828	314.446	315.281	312.894	312.297	315.496	315.782	103.094	115.126	104.813	104.049	106.770	104.240	104.789	103.715	106.197	106.723	103.667	103.858	52.602
87.000	316.427	304.419	314.278	314.493	312.369	315.186	314.660	315.520	313.276	312.679	315.305	315.520	103.046	115.246	104.813	104.097	106.794	104.168	104.526	103.548	106.174	106.675	103.667	103.619	39.112
88.000	316.332	304.466	314.517	314.589	312.034	314.828	314.875	315.305	313.228	312.512	315.210	315.520	102.927	115.198	104.861	104.097	106.770	104.264	104.622	103.667	106.269	106.603	103.667	103.762	26.749
89.000	316.761	303.846	314.660	314.493	312.130	314.923	314.923	315.687	313.371	312.464	315.186	315.353	102.975	115.269	104.813	104.025	106.794	104.192	104.574	103.691	106.078	106.770	103.619	103.571	34.825
