-----------------------------------------------------
BloodHound 307 VOC Analyser V2017.1
RoboScientific Ltd 
Espace North
Wisbech Road
Littleport
Cambridgeshire, UK
CB6 1RA 
-----------------------------------------------------
Date = 04/02/2021
Time = 12:35:49
Data is protected by RoboScientific Limited
-----------------------------------------------------
Name of the experiment = "2265N"
-----------------------------------------------------
Repeat No. = 4/4
-----------------------------------------------------
Experimental Time (in sec) and Flow Profile :
-----------------------------------------------------
Baseline = 2.00
Absorb = 10.00
Pause = 1.00
Desorb = 5.00
Flush = 10.00
Wait = 5.00
Higher Flow (V) = 4.00
Medium Flow (V) = 3.00
Low Flow (V) = 1.00
-----------------------------------------------------
Total Profile Time = 33 in sec
-----------------------------------------------------
Acquired data point per second = 4
--------------------------------------------------
Total data point stored  = 112
-----------------------------------------------------
Acquired sensor responses from 24 sensors
-----------------------------------------------------

Data Points	 Sen-1	 Sen-2	 Sen-3	 Sen-4	 Sen-5	 Sen-6	 Sen-7	 Sen-8	 Sen-9	 Sen-10	 Sen-11	 Sen-12	 Sen-13	 Sen-14	 Sen-15	 Sen-16	 Sen-17	 Sen-18	 Sen-19	 Sen-20	 Sen-21	 Sen-22	 Sen-23	 Sen-24	Humidity (%r.h.)
0.000	317.048	304.132	315.329	315.329	312.130	315.329	315.233	315.305	313.419	312.178	315.138	315.353	102.998	115.532	104.622	103.929	106.842	104.049	104.264	103.548	105.386	106.699	103.571	103.762	53.234
1.000	315.973	304.156	315.186	314.875	312.225	314.947	315.233	315.305	313.610	312.488	315.329	315.639	103.094	115.484	104.550	103.882	106.770	103.953	104.144	103.619	105.505	106.818	103.667	103.762	44.300
2.000	316.809	304.228	314.756	314.971	312.416	315.090	315.377	315.591	313.729	312.178	315.162	315.568	103.094	115.413	104.431	104.049	106.961	104.168	104.192	103.595	105.481	106.675	103.595	103.667	28.283
3.000	316.523	304.419	314.875	314.947	312.345	315.233	315.329	315.424	313.682	312.369	314.971	315.424	103.094	115.460	104.502	104.001	106.770	104.168	104.264	103.619	105.601	106.723	103.619	103.595	31.171
4.000	316.618	304.108	314.947	314.947	312.345	314.995	315.305	315.615	313.634	312.488	315.377	315.472	103.046	115.580	104.526	104.025	106.938	104.025	104.216	103.571	105.553	106.699	103.548	103.643	48.496
5.000	315.950	304.013	315.019	314.756	312.130	314.971	315.042	315.472	313.849	312.607	315.186	315.854	102.879	115.413	104.502	103.906	106.961	104.073	104.144	103.643	105.386	106.675	103.643	103.762	51.474
6.000	316.451	304.419	315.400	314.780	312.201	314.851	314.851	315.305	314.016	312.631	315.353	315.329	103.094	115.460	104.622	103.882	106.866	104.120	104.168	103.619	105.553	106.699	103.667	103.619	35.818
7.000	316.737	304.395	314.875	314.923	312.106	315.066	315.138	315.735	313.849	312.416	315.114	315.496	102.975	115.747	104.598	104.001	106.794	103.929	104.073	103.595	105.529	106.794	103.667	103.834	26.659
8.000	316.618	304.252	315.186	314.828	312.178	315.186	315.305	315.711	313.825	312.249	315.019	315.639	103.022	115.580	104.335	103.834	106.794	103.977	104.240	103.739	105.553	106.723	103.643	103.691	38.435
9.000	316.332	303.798	314.565	314.804	312.249	314.875	315.066	315.687	313.944	312.225	315.090	315.472	102.951	115.532	104.502	104.001	106.794	104.025	104.144	103.619	105.505	106.579	103.571	103.619	52.918
10.000	316.833	304.252	314.732	314.804	312.106	315.186	315.687	315.472	313.705	312.846	315.424	315.568	103.189	115.150	104.359	103.834	106.770	103.953	104.097	103.619	105.362	106.675	103.571	103.619	45.744
11.000	316.809	304.108	314.851	314.947	312.416	315.377	315.544	315.400	313.801	312.321	314.923	315.472	103.261	115.293	104.574	104.001	106.818	104.049	104.097	103.667	105.601	106.675	103.548	103.762	29.230
12.000	316.690	302.151	314.756	315.090	311.581	315.162	315.281	315.162	312.894	311.700	314.995	315.257	103.022	117.466	104.789	104.192	107.511	104.240	104.359	103.691	106.006	107.224	103.619	103.858	29.682
13.000	316.427	299.310	314.732	314.613	310.793	314.684	314.756	315.162	312.082	310.817	314.374	314.804	102.998	119.925	104.956	104.288	108.060	104.455	104.479	103.667	107.081	108.083	103.977	104.144	46.511
14.000	316.594	296.636	313.896	314.255	310.220	314.565	314.422	315.162	310.817	309.313	314.350	314.828	102.879	123.100	105.266	104.526	109.038	104.813	105.052	104.097	108.227	109.038	104.240	104.455	52.422
15.000	317.072	292.840	313.896	314.469	309.504	314.278	313.729	314.875	309.456	308.286	313.825	314.016	103.070	126.705	105.720	104.980	109.969	105.266	105.768	104.144	109.659	110.542	104.956	105.171	37.532
16.000	316.212	289.235	313.514	313.705	307.976	313.156	312.488	314.660	307.666	306.925	313.228	313.491	103.357	130.477	106.102	105.195	110.948	105.792	106.818	104.407	111.545	111.879	105.577	105.815	26.749
17.000	316.260	285.630	312.583	313.061	306.878	312.655	310.888	314.278	305.278	305.302	312.273	312.846	102.998	134.034	106.412	105.457	111.999	106.723	108.465	104.789	113.479	113.336	106.556	106.627	38.119
18.000	316.308	281.285	312.560	312.918	305.684	311.605	308.835	313.896	303.106	303.965	311.103	311.724	102.831	137.925	106.866	105.863	113.121	107.272	110.208	105.219	116.009	115.126	107.511	107.725	52.467
19.000	316.928	277.609	312.106	312.536	304.777	310.960	306.854	313.538	300.074	302.103	309.528	310.077	103.166	142.270	107.296	106.006	114.123	108.155	112.572	105.696	119.089	117.132	109.110	109.038	45.789
20.000	316.666	273.312	311.700	312.512	303.798	309.933	304.132	312.703	297.018	300.050	307.642	308.382	102.927	146.424	108.060	106.651	115.317	109.420	115.174	106.221	122.169	119.089	111.068	110.662	30.313
21.000	317.167	269.062	310.984	312.058	302.795	308.620	301.387	312.297	294.272	297.997	305.517	307.069	103.118	150.077	108.585	107.152	116.463	110.638	117.919	106.938	125.081	120.880	113.073	112.285	30.449
22.000	316.355	265.457	310.220	311.247	301.363	307.212	298.235	311.175	290.405	295.920	303.464	305.039	102.951	153.825	108.967	107.678	117.800	112.070	121.071	107.606	128.376	122.813	115.269	114.147	45.744
23.000	316.618	261.948	310.148	310.626	300.336	305.636	295.395	310.697	287.683	294.105	300.694	302.939	102.736	157.621	109.420	108.107	118.588	113.694	124.437	108.728	132.076	125.057	117.633	115.962	50.978
24.000	316.642	258.749	309.146	310.268	299.023	304.037	291.718	309.408	283.792	292.100	298.259	300.838	103.046	161.011	110.017	108.776	119.877	115.460	127.755	109.468	135.419	126.967	120.331	118.134	39.202
25.000	316.618	255.120	308.692	309.480	298.045	302.151	288.471	308.573	280.330	289.808	295.466	298.856	103.022	164.377	110.757	109.349	120.832	117.275	131.145	110.471	138.713	128.949	123.004	120.187	28.689
26.000	316.785	252.351	307.833	308.764	297.352	300.098	285.105	307.522	277.346	288.065	292.745	296.517	103.070	167.099	111.426	110.089	121.978	118.874	134.201	111.736	142.032	131.097	125.965	122.575	36.585
27.000	316.594	250.345	307.236	308.024	296.111	297.782	281.548	306.185	273.741	285.678	289.808	294.416	102.998	169.916	112.142	110.805	122.909	120.784	137.591	112.882	145.207	133.127	128.734	124.676	48.993
28.000	316.523	247.218	306.782	307.212	295.323	296.111	279.065	305.135	270.829	283.792	287.134	292.386	102.760	172.375	112.596	111.474	124.198	123.291	140.742	114.171	148.525	135.156	131.670	126.776	46.331
29.000	316.714	245.618	306.185	306.472	294.105	294.296	275.556	303.703	267.964	281.978	284.126	289.808	102.784	174.571	113.479	112.452	125.105	125.057	143.822	115.293	151.271	137.161	134.511	129.020	33.878
30.000	316.833	242.873	305.254	305.565	293.031	291.933	272.739	302.389	265.505	280.498	281.476	288.089	103.166	176.624	114.028	113.073	126.108	127.230	146.782	116.606	153.873	138.856	137.018	131.026	31.261
31.000	316.737	241.273	304.562	304.872	291.885	289.474	269.325	300.981	262.664	278.325	278.970	286.203	103.070	178.725	115.055	114.028	127.254	129.402	149.814	118.063	156.594	140.790	139.596	133.174	42.450
32.000	316.546	239.578	303.321	304.061	290.906	287.588	266.746	299.334	260.324	276.320	276.224	283.625	102.975	180.874	115.842	114.935	128.471	131.766	152.679	119.734	159.125	142.533	142.199	135.251	48.948
33.000	316.785	237.382	302.867	303.153	289.832	285.535	264.311	297.806	257.985	275.174	274.386	282.407	103.070	182.569	116.678	115.508	129.426	133.867	155.472	121.166	161.584	144.395	144.801	137.376	41.052
34.000	316.594	236.117	301.769	302.007	288.734	283.267	261.279	296.397	255.621	273.407	271.831	280.163	102.831	184.192	117.704	116.821	130.835	136.278	158.337	122.718	163.804	145.613	146.949	139.310	31.622
35.000	316.714	234.875	300.551	301.100	287.278	280.975	258.462	294.702	253.210	271.760	269.516	277.871	103.213	185.577	118.755	117.657	131.981	137.901	160.772	124.150	165.666	147.284	149.170	141.172	35.908
36.000	317.024	232.918	299.596	300.360	286.012	279.184	256.409	293.318	251.515	270.017	266.961	275.985	103.094	187.224	119.829	118.683	133.294	139.859	163.279	125.726	167.982	149.194	151.557	142.939	45.744
37.000	316.546	231.987	298.641	299.119	284.890	277.418	254.117	291.694	249.462	268.561	265.219	274.362	102.903	188.442	120.665	119.567	134.368	141.793	165.690	127.302	169.844	150.674	153.730	144.634	45.518
38.000	316.594	230.435	297.591	298.379	283.840	275.842	251.778	290.238	247.743	267.200	263.094	272.882	103.094	189.898	122.049	120.784	135.586	143.655	167.815	128.997	171.682	152.106	155.878	146.591	36.314
39.000	316.523	229.790	296.039	297.066	282.216	273.956	249.558	288.638	245.953	265.672	260.969	271.235	103.022	190.948	123.219	122.145	136.970	145.159	169.963	130.453	173.377	153.324	157.549	148.095	33.066
40.000	316.642	228.644	294.559	295.777	280.760	272.046	247.528	287.278	244.258	264.526	259.250	269.492	103.022	192.070	124.532	122.790	137.925	146.902	171.682	132.029	175.025	154.971	159.435	149.552	40.510
41.000	317.167	227.737	293.580	294.463	279.519	270.304	245.905	285.750	242.921	263.404	257.603	267.916	103.046	193.121	125.941	124.150	139.596	148.764	173.759	133.604	176.600	156.165	161.083	151.271	46.601
42.000	316.833	226.329	292.410	293.628	278.421	269.014	244.496	284.079	241.512	262.091	255.956	266.245	102.903	193.956	126.967	125.368	141.148	150.602	175.407	134.965	178.224	157.287	162.969	152.798	41.999
43.000	316.928	225.636	291.241	292.983	277.036	267.415	242.777	282.837	240.223	260.874	254.141	264.956	103.046	195.007	128.543	126.633	142.676	152.249	177.078	136.445	179.537	158.719	164.711	154.350	34.194
44.000	317.191	224.514	290.095	291.193	275.150	265.529	241.106	281.142	238.862	259.728	252.709	263.523	102.879	195.795	129.832	127.803	143.774	153.562	178.367	138.116	180.897	159.793	166.120	155.448	36.314
45.000	316.117	223.846	288.376	289.856	274.028	264.025	239.650	279.471	237.382	258.462	251.133	261.924	103.142	196.535	131.002	128.925	145.254	155.353	179.871	139.453	182.258	161.035	167.863	157.167	44.300
46.000	316.809	223.607	286.705	288.567	272.500	262.330	238.623	278.492	235.902	257.484	249.987	260.778	102.879	197.179	132.315	130.381	146.878	156.952	181.256	140.957	183.476	162.252	169.056	158.313	44.526
47.000	316.403	222.915	285.678	287.325	271.020	260.802	237.072	276.917	235.090	256.051	248.746	259.489	102.903	197.776	133.700	131.599	148.167	158.647	182.425	142.246	184.502	163.136	170.417	159.889	37.623
48.000	316.714	222.366	284.270	286.156	269.540	259.059	236.284	275.771	233.944	254.738	247.146	258.295	103.022	198.063	135.251	132.792	149.647	159.984	183.547	143.607	185.601	164.234	171.730	160.939	34.735
49.000	316.451	221.864	282.694	285.010	268.059	257.889	235.162	274.458	232.989	254.022	246.167	257.245	102.903	198.516	136.421	133.962	151.103	161.393	184.455	145.183	186.627	165.260	173.019	162.276	40.916
50.000	316.284	222.199	282.718	284.962	268.179	258.152	235.257	274.386	233.300	254.332	246.884	257.507	102.712	198.253	136.827	133.962	151.318	161.297	184.335	144.729	186.460	165.165	172.757	161.846	44.887
51.000	316.618	222.509	283.052	285.511	267.940	258.653	235.353	274.887	233.180	254.738	246.955	257.818	102.807	198.134	136.732	133.747	151.080	161.011	184.216	144.634	186.174	164.831	172.518	161.369	40.781
52.000	316.690	222.867	283.100	285.583	268.537	258.558	235.639	275.030	233.682	255.048	247.099	257.889	103.142	197.967	136.612	133.556	151.056	160.915	183.810	144.156	186.006	164.687	172.184	161.202	34.735
53.000	317.501	222.819	282.598	285.654	268.537	258.534	235.783	275.126	233.371	254.905	247.242	258.391	102.831	197.824	136.636	133.652	151.223	160.868	183.906	144.228	185.887	164.592	172.208	161.202	37.442
54.000	316.928	222.127	282.145	284.413	267.630	257.316	235.019	274.099	232.965	253.831	245.547	257.102	102.807	197.895	137.567	134.392	152.034	161.942	184.574	145.231	186.675	165.213	173.282	162.300	43.759
55.000	317.072	233.825	285.177	287.469	272.977	264.646	245.427	278.659	243.852	262.258	254.714	266.245	102.951	186.006	134.010	131.026	145.899	154.422	173.807	140.766	175.359	156.833	163.661	152.536	44.210
56.000	316.928	251.635	291.050	293.079	281.858	275.269	260.492	286.752	259.751	274.052	268.609	280.259	102.903	169.200	128.567	126.108	137.925	144.419	159.674	133.294	160.820	145.851	151.294	139.764	37.126
57.000	317.048	270.423	297.686	298.976	291.217	286.800	276.272	294.893	275.412	286.394	282.503	293.485	103.094	151.056	122.097	120.402	129.020	133.628	144.467	124.890	145.207	133.771	137.328	126.848	31.531
58.000	317.024	284.938	303.321	304.490	298.928	295.657	288.805	301.793	288.328	296.087	293.700	302.652	103.189	136.421	116.630	115.436	121.333	124.532	131.933	118.277	132.148	123.601	126.012	117.203	39.743
59.000	316.260	293.843	306.925	307.260	303.297	301.148	296.517	305.923	296.230	301.840	300.551	308.262	103.118	126.729	112.810	111.784	116.009	118.039	123.458	113.216	123.601	117.370	118.612	111.474	51.474
60.000	316.714	299.883	309.146	309.575	306.734	305.111	301.387	308.859	301.673	306.066	305.207	311.103	103.285	120.641	110.423	109.277	112.643	114.100	118.254	110.447	118.325	113.097	113.479	107.940	44.300
61.000	316.618	303.464	311.032	311.127	308.573	307.594	305.016	311.056	304.729	308.477	308.167	312.631	103.094	117.108	109.086	108.107	110.733	111.975	115.365	108.609	114.959	110.614	110.447	106.317	29.636
62.000	316.642	305.398	311.390	311.796	309.886	309.074	306.711	312.416	307.045	310.578	310.411	313.729	103.046	114.673	107.916	107.248	109.301	110.256	113.049	107.081	112.691	108.919	108.561	105.386	30.539
63.000	316.594	306.734	311.700	312.297	310.769	310.530	308.358	313.228	308.167	311.008	311.605	314.589	103.189	113.097	107.439	106.699	108.418	109.062	111.354	106.126	111.378	107.988	107.081	104.670	47.323
64.000	316.260	308.119	312.440	312.655	311.079	310.650	308.716	313.467	308.931	311.987	313.061	315.162	103.213	112.190	107.105	106.197	107.773	108.131	110.686	105.434	110.495	107.296	105.815	104.288	51.880
65.000	316.642	308.859	312.989	313.013	311.700	311.557	309.504	314.183	309.838	312.440	313.371	314.947	103.237	111.497	106.818	106.054	107.391	107.534	109.922	105.052	109.778	106.842	105.266	104.097	36.675
66.000	316.690	309.098	312.870	313.133	311.915	312.034	309.599	314.374	310.292	312.894	314.064	315.210	102.927	111.092	106.556	105.720	107.081	107.224	109.564	104.502	109.110	106.388	104.789	103.929	26.478
67.000	316.332	308.931	313.109	313.514	312.201	312.225	310.124	314.565	310.411	313.013	314.565	315.806	103.118	110.829	106.341	105.505	107.105	107.033	109.420	104.192	108.752	106.006	104.216	103.929	38.660
68.000	316.642	308.979	312.870	313.753	312.345	312.583	310.387	315.329	310.674	312.989	314.851	315.615	103.142	111.020	106.412	105.338	106.866	106.651	109.158	104.192	108.513	105.839	103.953	103.715	53.144
69.000	316.737	309.313	313.467	314.446	312.512	312.679	310.124	315.162	311.199	313.300	314.684	315.496	102.951	110.924	106.317	105.147	106.579	106.436	109.182	103.882	108.107	105.935	103.810	103.619	44.977
70.000	316.546	308.668	313.204	314.111	312.655	313.443	310.554	315.210	311.366	313.276	314.828	315.424	103.046	111.020	106.293	104.932	106.532	106.054	108.943	103.810	108.083	105.911	103.715	103.595	28.283
71.000	316.523	308.382	312.965	314.398	313.013	313.347	310.339	315.448	311.557	313.061	315.233	315.639	103.046	111.306	106.245	104.717	106.317	105.720	108.967	103.810	107.725	105.815	103.762	103.786	31.080
72.000	316.188	308.501	313.276	314.231	312.536	313.753	310.578	315.400	311.390	313.109	315.042	315.233	103.070	111.569	105.935	104.717	106.197	105.601	108.776	103.762	107.725	105.863	103.548	103.667	48.000
73.000	316.570	308.095	313.562	314.732	312.727	313.634	311.032	315.424	311.819	313.514	315.090	315.997	102.903	111.712	105.983	104.502	106.197	105.243	108.322	103.691	107.654	105.911	103.643	103.452	51.790
74.000	316.618	307.594	313.777	314.207	312.918	314.207	311.366	315.759	311.867	313.037	315.138	315.663	102.951	112.261	105.815	104.288	106.150	105.195	108.083	103.762	107.391	105.935	103.452	103.643	36.089
75.000	316.451	307.475	314.231	314.780	312.679	314.040	311.557	315.496	312.082	312.822	315.257	315.615	103.022	112.763	105.625	104.288	106.102	104.884	107.582	103.715	107.320	106.174	103.643	103.667	26.614
76.000	316.737	306.758	314.064	314.995	312.918	314.469	312.058	315.377	312.058	313.109	315.448	315.520	103.142	113.192	105.529	104.311	106.174	104.861	107.296	103.643	107.129	106.174	103.619	103.715	38.164
77.000	316.403	306.472	314.422	314.613	312.846	314.637	312.583	315.329	312.249	312.583	315.329	315.615	103.022	113.360	105.362	104.264	106.365	104.598	106.603	103.548	107.009	106.341	103.667	103.691	52.873
78.000	316.570	306.281	314.446	314.971	312.607	314.589	313.061	315.568	312.488	312.440	315.114	315.663	102.879	113.789	105.290	104.097	106.412	104.598	106.293	103.619	106.770	106.245	103.548	103.667	46.240
79.000	316.451	305.732	314.469	314.756	312.488	314.780	313.491	315.329	312.512	312.583	315.162	315.782	102.975	114.219	105.171	104.120	106.484	104.502	105.863	103.548	106.699	106.388	103.762	103.667	29.501
80.000	317.167	305.398	314.207	314.875	312.846	314.875	314.016	315.687	312.822	312.392	314.923	315.329	103.022	114.410	105.195	104.073	106.508	104.431	105.720	103.715	106.723	106.532	103.595	103.643	30.043
81.000	316.666	305.016	314.398	314.995	312.607	314.493	313.968	315.735	312.679	312.369	315.066	315.496	102.760	114.505	105.290	104.120	106.556	104.383	105.386	103.571	106.460	106.532	103.834	103.834	47.233
82.000	316.427	304.992	314.326	314.923	312.416	314.947	314.159	315.568	313.061	312.655	315.448	315.735	103.046	114.911	105.052	104.144	106.532	104.216	105.243	103.571	106.269	106.579	103.595	103.810	52.106
83.000	316.857	304.681	314.183	314.684	312.273	314.947	314.708	315.735	312.965	312.536	315.186	315.735	103.261	114.911	105.219	104.097	106.747	104.335	104.956	103.595	106.365	106.508	103.524	103.786	36.810
84.000	316.475	304.825	314.469	314.995	312.321	314.947	314.541	315.615	312.989	312.536	315.305	315.329	103.237	114.887	104.980	104.264	106.818	104.240	104.908	103.643	106.269	106.460	103.739	103.810	26.478
85.000	316.714	304.490	314.756	315.162	312.607	315.090	314.923	315.377	312.965	312.607	315.377	315.759	102.975	115.007	105.028	103.977	106.532	104.168	104.837	103.619	106.174	106.699	103.691	103.810	38.525
86.000	316.403	304.729	314.469	314.684	312.536	314.947	314.541	315.568	313.061	312.655	315.377	315.639	103.142	115.222	105.004	103.977	106.675	104.288	104.765	103.524	106.197	106.651	103.643	103.667	52.828
87.000	316.618	304.299	314.135	314.684	312.225	315.019	314.804	315.711	312.870	312.321	315.448	315.615	103.333	115.413	104.861	103.953	106.556	104.264	104.837	103.667	106.102	106.651	103.571	103.691	46.285
88.000	316.069	304.562	314.517	314.828	312.225	314.708	314.732	315.496	313.180	312.321	315.090	315.735	103.070	115.246	104.693	104.049	106.747	104.073	104.646	103.595	106.126	106.651	103.715	103.810	29.546
89.000	316.475	304.681	315.019	314.923	312.034	314.756	314.804	315.305	313.085	312.440	315.257	315.615	102.998	115.222	104.765	104.168	106.747	104.049	104.502	103.619	105.959	106.699	103.786	104.001	29.817
