-----------------------------------------------------
BloodHound 307 VOC Analyser V2017.1
RoboScientific Ltd 
Espace North
Wisbech Road
Littleport
Cambridgeshire, UK
CB6 1RA 
-----------------------------------------------------
Date = 13/04/2022
Time = 13:10:07
Data is protected by RoboScientific Limited
-----------------------------------------------------
Name of the experiment = "08b_Day 42"
-----------------------------------------------------
Repeat No. = 4/4
-----------------------------------------------------
Experimental Time (in sec) and Flow Profile :
-----------------------------------------------------
Baseline = 2.00
Absorb = 4.00
Pause = 1.00
Desorb = 5.00
Flush = 20.00
Wait = 5.00
Higher Flow (V) = 4.00
Medium Flow (V) = 3.00
Low Flow (V) = 1.00
-----------------------------------------------------
Total Profile Time = 37 in sec
-----------------------------------------------------
Acquired data point per second = 4
--------------------------------------------------
Total data point stored  = 128
-----------------------------------------------------
Acquired sensor responses from 24 sensors
-----------------------------------------------------

Data Points	 Sen-1	 Sen-2	 Sen-3	 Sen-4	 Sen-5	 Sen-6	 Sen-7	 Sen-8	 Sen-9	 Sen-10	 Sen-11	 Sen-12	 Sen-13	 Sen-14	 Sen-15	 Sen-16	 Sen-17	 Sen-18	 Sen-19	 Sen-20	 Sen-21	 Sen-22	 Sen-23	 Sen-24	Humidity (%r.h.)
0.000	305.780	276.057	247.266	302.318	312.560	314.756	314.971	300.885	289.546	303.941	232.488	217.663	113.741	143.536	172.231	116.296	106.341	104.264	104.168	117.752	129.211	114.983	185.720	202.121	39.743
1.000	305.708	276.487	247.313	302.294	312.178	314.493	314.923	301.172	289.808	304.061	232.607	217.376	113.622	143.512	172.112	116.391	106.317	104.288	104.097	117.800	129.259	114.935	185.863	202.240	40.510
2.000	305.803	276.678	247.409	302.580	312.583	314.828	314.923	300.838	289.569	304.275	232.297	217.400	113.550	143.297	171.897	116.153	106.293	104.240	104.288	117.824	129.307	114.840	185.863	202.240	41.232
3.000	306.161	276.702	247.624	302.652	312.607	314.971	315.042	300.838	289.641	304.180	232.369	217.495	113.383	143.154	171.682	116.200	106.245	104.383	104.288	117.872	129.283	114.792	185.839	202.312	40.871
4.000	306.114	277.036	247.767	302.318	312.560	314.780	315.090	301.244	289.593	304.108	232.512	217.305	113.574	142.986	171.539	116.272	106.365	104.192	104.144	117.728	129.331	114.840	185.839	202.240	39.969
5.000	305.589	276.988	247.863	302.533	312.392	314.780	314.995	301.100	289.856	304.419	232.631	217.233	113.312	142.795	171.467	116.081	106.269	104.311	104.216	117.728	129.331	114.792	185.815	202.455	39.698
6.000	306.090	277.251	247.767	302.891	312.703	314.541	314.851	301.076	289.808	304.371	232.058	217.328	113.121	142.676	171.300	116.105	106.197	104.264	104.240	117.800	129.188	114.553	185.959	202.503	40.510
7.000	306.066	276.940	248.101	302.485	312.560	314.613	315.305	301.387	289.975	304.347	232.321	217.185	113.360	142.700	171.062	116.129	106.245	104.216	104.264	117.704	129.498	114.720	186.006	202.575	41.052
8.000	306.448	277.418	248.101	302.461	312.727	314.875	315.496	301.148	289.522	304.419	232.488	216.875	113.264	142.581	170.871	116.129	106.221	104.216	104.144	117.657	129.379	114.505	185.768	202.551	40.781
9.000	306.018	277.728	248.507	302.986	312.536	314.541	314.780	301.029	289.760	304.275	232.202	217.066	113.312	142.151	170.751	115.938	106.341	104.288	104.240	117.704	129.450	114.458	185.792	202.670	39.879
10.000	304.395	274.816	247.767	302.294	312.249	314.613	315.019	300.933	289.856	304.037	232.178	262.807	114.314	143.965	170.847	116.272	106.269	104.288	104.120	117.800	129.188	115.055	186.150	159.077	39.788
11.000	270.709	257.340	244.568	300.360	311.891	314.087	314.684	298.952	290.142	288.376	230.268	297.615	149.767	163.351	174.667	117.967	106.794	104.598	104.240	119.734	128.543	131.479	187.654	124.055	38.570
12.000	230.865	290.620	233.682	296.875	310.769	313.419	314.493	295.466	290.811	240.438	229.050	311.414	187.725	127.946	185.959	121.453	107.701	105.386	104.813	123.553	128.233	179.011	189.134	109.110	48.722
13.000	256.170	308.835	231.008	292.124	309.862	312.369	313.849	290.787	290.620	227.618	227.928	319.053	161.465	109.850	187.797	126.872	108.967	106.412	105.386	127.755	128.137	190.328	190.232	101.709	50.075
14.000	278.039	318.695	245.117	283.768	307.666	310.912	312.703	285.750	290.262	246.024	227.451	323.732	140.074	100.587	171.921	134.631	110.996	107.773	106.197	132.554	128.400	172.446	190.972	97.030	36.765
15.000	295.060	324.281	257.865	275.078	305.612	309.480	311.819	280.617	289.355	260.420	226.687	327.218	124.819	95.168	158.862	143.894	113.025	108.943	107.152	138.092	129.331	158.456	191.473	94.118	28.960
16.000	306.806	327.958	268.346	265.099	303.273	308.167	310.530	275.102	288.471	272.190	226.424	328.794	112.882	92.017	147.188	153.658	115.460	110.710	108.251	143.440	130.357	146.496	192.046	92.637	38.615
17.000	314.469	330.465	275.102	254.977	300.050	305.803	308.764	268.823	287.612	280.999	225.923	329.653	104.335	89.200	138.307	163.613	118.636	112.930	110.232	149.958	131.432	136.708	192.595	90.775	52.828
18.000	320.056	331.993	281.476	245.762	296.540	303.559	306.448	261.733	286.538	288.734	225.326	331.443	99.083	88.364	131.193	172.757	122.026	115.007	112.333	156.618	132.506	128.591	192.763	89.892	49.895
19.000	324.019	332.852	286.967	236.642	292.768	300.694	303.798	254.523	285.177	295.275	224.920	331.396	94.929	86.597	125.965	181.709	126.108	117.800	114.983	164.234	133.724	122.957	193.097	90.322	34.194
20.000	326.764	334.070	290.453	229.456	288.519	297.519	300.838	247.624	284.007	299.549	224.705	331.945	92.232	86.383	122.169	190.041	130.357	121.071	118.254	171.826	135.037	118.397	193.264	89.056	28.509
21.000	329.414	334.093	293.819	223.225	284.031	294.058	296.851	240.629	282.718	303.631	225.063	332.733	90.202	84.831	119.495	196.582	135.323	124.604	122.217	179.155	136.445	114.625	193.527	88.603	40.330
22.000	330.393	334.380	296.302	223.774	279.017	290.429	292.458	234.159	280.951	306.997	224.705	333.138	88.101	84.902	115.914	194.768	140.146	128.257	126.609	185.720	137.949	111.474	193.574	88.555	54.181
23.000	331.921	334.690	298.856	229.456	273.598	286.275	287.469	228.501	279.734	309.910	224.920	333.616	87.361	84.831	114.553	188.728	145.350	131.885	131.312	190.924	139.214	108.943	193.694	88.173	48.812
24.000	332.566	335.550	300.862	235.663	268.059	282.145	281.930	225.326	277.704	311.461	225.039	333.711	86.979	84.138	113.025	181.900	150.841	135.992	137.018	194.434	140.957	106.699	193.670	87.361	32.750
25.000	333.043	335.574	302.509	241.345	263.094	278.516	276.749	224.920	276.129	313.180	225.039	334.810	86.096	84.353	112.118	177.316	157.000	139.907	142.843	193.646	142.652	104.741	193.479	87.099	28.915
26.000	333.306	335.550	303.273	241.679	258.892	277.036	272.882	225.135	275.771	313.443	225.183	333.497	86.024	84.043	111.521	176.553	161.011	141.745	146.735	193.646	143.321	105.338	193.789	86.597	42.721
27.000	333.067	336.290	303.392	241.560	257.913	277.012	271.927	224.968	275.938	313.395	224.992	333.831	86.550	84.234	111.187	176.815	162.061	141.602	147.570	193.622	143.225	104.861	193.765	87.314	54.993
28.000	333.688	336.194	304.108	241.154	256.767	277.537	271.808	224.944	275.818	312.846	224.825	333.401	86.383	83.709	111.163	177.316	162.396	141.053	147.809	193.932	143.082	105.577	193.956	86.741	46.511
29.000	333.520	336.338	304.108	240.175	257.030	277.609	271.235	224.705	276.176	312.297	224.968	334.189	85.881	84.974	111.259	178.128	162.396	140.838	147.857	194.171	142.700	105.911	193.885	87.099	31.216
30.000	333.759	335.860	305.159	242.945	255.979	276.678	270.065	225.851	275.818	314.040	224.753	333.377	86.120	83.947	111.593	175.144	163.589	141.960	149.098	192.906	143.154	104.693	193.670	86.406	29.636
31.000	334.404	335.621	305.612	247.934	252.160	272.954	265.577	226.329	274.863	313.968	224.562	333.473	86.048	84.377	110.686	170.298	167.648	145.780	153.467	191.617	144.490	104.407	193.956	87.075	44.571
32.000	332.661	336.003	306.066	250.441	248.412	271.020	262.425	225.636	275.078	311.676	225.087	333.401	87.409	85.022	110.089	168.006	171.324	147.857	157.024	192.142	143.392	106.961	193.741	86.884	55.039
33.000	330.465	335.001	306.448	250.178	246.955	271.569	263.333	226.329	277.513	307.284	225.111	332.016	89.223	84.711	109.397	167.934	173.091	147.355	155.950	193.240	141.411	111.521	193.336	88.030	45.383
34.000	328.794	335.096	306.185	249.104	248.006	273.192	266.197	231.867	279.948	301.411	225.636	329.319	91.229	84.711	109.874	169.438	171.563	145.350	152.727	187.582	139.023	118.158	192.834	89.677	30.133
35.000	325.785	334.332	306.472	245.045	250.894	275.508	270.232	239.387	282.121	292.530	226.305	327.671	93.282	85.332	109.373	172.757	168.459	142.772	148.525	179.943	136.899	126.705	192.142	91.850	31.080
36.000	322.037	334.141	306.400	240.987	254.499	279.304	275.317	246.908	283.768	281.906	226.949	324.807	96.815	86.048	109.850	177.173	164.640	139.835	144.013	172.566	135.347	136.755	191.473	94.118	46.060
37.000	318.385	332.733	305.541	235.615	258.797	281.906	280.020	253.831	284.795	269.874	227.331	322.181	100.826	86.478	111.259	182.640	160.295	137.209	139.262	165.308	133.891	148.740	190.662	97.221	53.640
38.000	313.252	331.181	305.708	229.241	263.667	284.890	284.341	260.110	286.251	256.982	228.000	318.146	106.293	87.457	111.641	188.585	155.425	134.058	134.702	158.767	132.888	162.634	190.089	101.280	42.405
39.000	306.161	331.682	303.774	223.631	268.012	287.421	288.209	264.717	286.705	242.372	228.382	314.087	113.765	88.054	112.763	195.126	150.578	131.026	130.477	153.658	131.957	177.197	189.683	105.625	30.629
40.000	296.851	330.393	302.676	220.122	272.619	289.904	291.957	269.468	287.254	228.334	229.098	309.981	122.193	89.558	113.741	198.468	145.899	128.400	126.848	149.194	131.121	190.757	189.182	109.277	34.013
41.000	284.747	329.152	300.885	224.753	277.513	292.721	295.586	273.049	287.898	219.883	228.859	305.135	134.058	90.131	115.007	194.219	141.936	126.275	123.697	145.589	130.906	199.686	189.110	114.171	46.692
42.000	272.166	328.364	299.119	232.058	281.070	294.845	298.665	276.248	288.256	230.888	229.074	300.289	147.379	91.300	116.869	186.985	137.973	123.888	120.450	142.294	130.596	188.394	188.871	118.755	50.527
43.000	258.749	326.430	297.042	238.600	284.675	297.328	301.076	279.280	288.328	241.178	229.289	296.803	161.512	93.115	118.898	179.823	134.344	121.691	118.254	139.716	130.334	178.128	188.656	123.124	40.916
44.000	244.759	325.308	294.845	245.022	287.683	299.071	303.106	281.047	288.758	249.510	229.743	292.386	174.834	94.452	121.285	173.473	131.288	119.614	116.177	137.615	130.214	168.889	188.394	127.779	32.253
45.000	233.324	323.852	291.432	251.085	290.190	301.053	304.705	282.885	288.949	257.054	230.316	288.519	185.457	96.123	123.912	167.218	128.113	117.442	114.267	135.514	130.023	161.417	187.869	131.360	36.404
46.000	224.896	321.846	288.614	256.911	293.174	303.058	306.042	284.437	288.710	263.142	230.363	284.150	194.123	97.579	126.490	162.109	125.821	115.747	112.954	134.058	130.023	155.854	187.773	135.490	46.331
47.000	219.501	320.342	285.797	261.494	295.036	304.968	307.403	286.036	288.877	268.561	230.411	280.951	199.972	99.274	130.119	157.167	123.625	114.100	111.688	132.458	129.975	150.817	187.725	138.904	47.729
48.000	221.267	318.003	281.429	266.030	296.875	306.042	308.262	287.182	288.877	272.500	230.172	277.680	197.895	101.542	133.986	152.560	121.548	112.667	110.710	131.432	129.975	146.496	187.678	142.127	40.104
49.000	229.599	316.021	277.394	269.874	298.594	307.045	309.193	288.209	289.116	275.890	230.554	274.625	190.065	104.025	138.116	148.477	119.805	111.450	109.755	130.238	129.904	142.748	187.510	145.207	34.103
50.000	237.454	313.682	272.858	274.052	300.480	308.429	309.981	289.331	288.925	279.280	230.817	271.163	181.709	106.365	142.223	144.419	118.254	110.495	109.206	129.092	129.761	139.238	187.391	148.907	38.254
51.000	245.165	310.483	267.797	277.322	301.602	309.026	310.626	290.620	289.020	281.882	230.960	267.534	174.571	109.253	147.308	141.291	116.845	109.468	108.418	128.352	129.808	136.779	187.272	151.963	45.699
52.000	251.085	307.546	263.189	279.972	303.130	310.172	311.103	291.121	288.925	284.580	230.817	264.646	168.245	112.261	152.942	138.594	115.675	108.537	107.821	127.373	129.880	134.726	187.176	155.066	45.383
53.000	256.982	303.941	258.104	282.575	304.061	310.459	311.557	292.148	289.307	286.514	230.578	261.852	162.610	116.057	157.979	136.135	114.553	108.107	107.391	126.776	129.808	132.649	187.248	157.836	39.743
54.000	261.160	300.002	253.115	284.341	304.872	311.390	312.010	292.816	289.116	287.946	231.175	259.322	158.122	119.877	162.969	134.034	113.670	107.534	107.176	126.156	129.737	131.121	187.176	160.653	35.682
55.000	265.004	296.373	248.698	286.012	305.899	311.819	312.583	293.461	288.996	289.140	231.223	256.433	154.231	123.243	167.600	132.554	112.787	107.129	106.699	125.296	129.832	129.999	187.081	163.064	39.157
56.000	268.298	292.745	244.568	287.922	306.305	311.724	312.369	293.700	289.259	290.047	230.960	254.261	151.175	127.134	172.017	131.074	112.357	106.961	106.436	124.986	129.761	128.662	186.890	165.404	45.067
57.000	271.020	289.474	240.844	288.734	306.997	311.987	312.727	294.368	289.068	290.882	231.032	252.279	148.525	130.739	176.099	129.641	111.736	106.627	106.317	124.508	129.808	127.755	186.937	167.290	43.669
58.000	273.503	285.583	237.525	289.808	307.594	312.560	312.989	294.678	289.235	291.957	231.438	250.417	146.018	134.106	179.608	128.686	111.283	106.341	106.054	124.103	129.689	126.896	186.818	169.510	39.292
59.000	275.102	282.384	234.660	290.930	307.904	312.583	312.846	294.631	289.307	292.936	231.008	248.722	144.156	137.758	182.974	127.755	110.805	106.102	105.983	123.697	129.761	126.227	186.818	171.038	37.217
60.000	277.466	278.588	231.867	291.909	308.477	312.870	313.300	295.156	289.020	293.365	231.438	246.573	142.175	141.244	185.672	126.705	110.351	106.102	105.935	123.339	129.737	125.559	186.723	172.804	40.239
61.000	279.041	274.410	229.934	293.055	308.883	313.204	313.252	295.824	289.116	293.819	231.390	245.069	140.742	145.254	188.131	126.108	110.137	105.815	105.672	123.076	129.856	125.034	186.555	174.308	44.661
62.000	280.378	270.518	227.976	293.318	308.668	312.894	313.538	295.872	289.450	294.654	231.629	243.995	139.023	149.361	189.993	125.392	109.778	105.863	105.625	122.837	129.641	124.532	186.651	175.932	43.172
63.000	281.739	265.935	226.758	293.747	309.504	313.300	313.610	296.445	289.068	294.702	231.748	242.801	137.925	153.920	192.070	124.795	109.540	105.720	105.410	122.599	129.570	124.126	186.651	176.958	39.382
64.000	283.028	261.447	226.066	294.487	309.361	313.252	313.562	296.517	289.450	295.395	231.605	241.679	136.660	158.528	193.359	124.365	109.373	105.648	105.434	122.240	129.689	123.697	186.579	178.367	38.074
65.000	283.720	256.815	225.183	294.559	309.432	313.276	313.658	296.636	289.140	295.633	231.796	240.390	135.562	162.873	194.362	123.840	109.158	105.457	105.266	121.954	129.713	123.362	186.579	179.537	41.007
66.000	285.296	252.231	224.610	295.275	309.719	313.562	313.825	297.090	289.450	296.015	231.485	239.316	134.249	167.457	195.054	123.339	108.967	105.481	105.457	121.906	129.713	122.885	186.484	180.492	44.255
67.000	286.538	247.934	224.610	295.920	310.029	313.538	314.183	297.257	289.044	296.182	231.676	238.194	133.485	172.112	195.436	123.076	108.871	105.243	105.147	121.572	129.665	122.718	186.460	181.566	42.135
68.000	286.800	243.255	224.896	296.326	310.029	313.347	313.849	297.257	289.068	296.349	231.652	237.501	132.315	176.433	195.651	122.455	108.537	105.290	105.195	121.429	129.641	122.217	186.555	182.330	39.337
69.000	288.447	238.958	224.896	296.755	310.124	313.705	314.469	297.710	289.378	297.042	231.676	236.427	131.670	180.659	195.580	122.240	108.442	105.243	105.028	121.214	129.593	122.073	186.484	183.309	38.660
70.000	288.901	234.899	225.565	296.517	310.483	313.849	314.326	297.877	289.235	296.946	232.106	235.639	130.883	184.741	195.341	121.954	108.442	105.243	105.052	121.023	129.474	121.667	186.365	183.929	41.503
71.000	289.378	230.769	226.138	297.066	310.602	313.753	314.040	297.734	289.402	297.113	231.485	234.660	130.381	188.823	194.792	121.548	108.251	105.171	104.908	120.880	129.570	121.715	186.436	184.813	43.578
72.000	290.190	227.355	226.448	297.113	310.697	313.920	314.302	298.116	289.235	297.495	232.011	234.279	129.474	192.715	194.362	121.405	108.274	105.075	104.884	120.784	129.546	121.333	186.388	185.529	41.277
73.000	290.453	223.344	226.806	297.543	310.483	313.562	314.111	298.164	289.474	297.615	231.963	233.897	129.092	195.938	193.598	121.118	108.251	105.123	104.813	120.641	129.617	121.166	186.341	186.006	39.202
74.000	290.620	220.957	227.260	297.519	310.578	313.777	314.135	297.997	289.426	298.068	231.963	233.443	128.400	198.803	193.001	120.832	107.845	104.908	104.884	120.522	129.689	120.904	186.436	186.388	39.021
75.000	291.861	219.405	227.904	297.854	310.650	313.658	314.087	298.355	289.283	298.355	231.557	232.679	127.898	200.712	192.452	120.713	107.892	105.123	104.741	120.450	129.570	120.689	186.532	187.081	42.044
76.000	291.861	219.000	228.477	298.212	311.032	313.992	314.231	298.450	289.211	298.235	231.820	232.225	127.516	201.476	191.641	120.426	107.845	105.052	104.884	120.378	129.617	120.545	186.460	187.558	43.262
77.000	292.745	220.026	229.241	298.450	310.960	313.873	314.398	298.379	289.307	298.450	231.987	231.366	126.872	200.426	191.091	120.331	107.582	104.908	104.693	120.187	129.522	120.402	186.412	188.203	40.871
78.000	293.222	221.602	229.862	298.450	311.199	313.873	314.398	298.880	289.331	298.355	232.058	231.151	126.442	198.779	190.375	120.187	107.773	104.741	104.670	119.925	129.570	120.283	186.317	188.800	39.202
79.000	293.556	223.464	230.244	298.474	311.079	314.040	314.541	298.689	289.569	299.167	231.891	230.387	126.012	196.797	189.802	119.853	107.654	104.741	104.670	119.925	129.522	120.068	186.388	189.229	39.112
80.000	294.177	225.780	230.841	298.808	311.079	313.825	314.565	298.952	289.378	299.023	231.987	230.196	125.654	194.720	189.253	119.901	107.654	104.765	104.717	119.972	129.665	119.996	186.245	189.564	42.225
81.000	294.463	227.570	231.342	298.928	311.103	313.992	314.446	298.785	289.283	299.238	231.963	229.480	125.201	192.548	188.728	119.734	107.511	104.789	104.670	119.781	129.474	119.877	186.174	190.113	42.811
82.000	294.965	229.719	231.676	298.832	311.079	314.517	314.708	299.358	289.546	299.119	232.011	229.098	124.867	190.614	188.012	119.471	107.630	104.765	104.622	119.781	129.426	119.519	186.126	190.566	40.555
83.000	294.989	231.748	231.867	298.976	311.199	313.729	314.541	298.880	289.450	299.453	232.082	228.406	124.508	188.203	187.558	119.471	107.463	104.765	104.526	119.638	129.379	119.519	186.102	191.163	39.337
84.000	295.777	233.920	232.464	299.167	311.223	314.064	314.684	299.119	289.307	299.453	232.154	228.239	124.031	186.126	187.152	119.423	107.415	104.717	104.479	119.471	129.402	119.447	186.126	191.545	39.337
85.000	295.729	235.544	233.706	299.453	311.294	314.326	314.589	299.358	289.832	299.740	232.082	227.379	123.721	184.192	186.555	119.185	107.391	104.670	104.574	119.567	129.570	119.376	186.245	191.855	41.954
86.000	295.681	238.218	233.586	299.429	311.247	313.968	314.326	299.071	289.426	299.716	232.297	227.427	123.506	182.211	185.768	119.089	107.439	104.622	104.574	119.423	129.426	118.994	186.150	192.428	42.405
87.000	296.970	239.889	234.470	299.716	311.557	314.183	314.493	299.477	289.474	300.026	231.843	226.854	123.100	180.134	185.601	118.946	107.224	104.741	104.717	119.567	129.522	118.946	186.030	192.977	40.149
88.000	296.803	241.584	234.493	299.644	311.581	314.064	314.422	299.381	289.164	299.763	232.034	226.496	122.718	178.128	185.028	119.018	107.320	104.646	104.574	119.352	129.283	118.683	186.078	193.192	39.337
89.000	297.018	243.422	235.353	299.811	311.748	314.326	314.541	299.358	289.235	299.859	231.915	226.472	122.288	176.457	184.502	118.707	107.176	104.407	104.288	119.209	129.546	118.898	186.006	193.479	39.698
