-----------------------------------------------------
BloodHound 307 VOC Analyser V2017.1
RoboScientific Ltd 
Espace North
Wisbech Road
Littleport
Cambridgeshire, UK
CB6 1RA 
-----------------------------------------------------
Date = 13/04/2022
Time = 12:25:19
Data is protected by RoboScientific Limited
-----------------------------------------------------
Name of the experiment = "08b_Day 34"
-----------------------------------------------------
Repeat No. = 4/4
-----------------------------------------------------
Experimental Time (in sec) and Flow Profile :
-----------------------------------------------------
Baseline = 2.00
Absorb = 4.00
Pause = 1.00
Desorb = 5.00
Flush = 20.00
Wait = 5.00
Higher Flow (V) = 4.00
Medium Flow (V) = 3.00
Low Flow (V) = 1.00
-----------------------------------------------------
Total Profile Time = 37 in sec
-----------------------------------------------------
Acquired data point per second = 4
--------------------------------------------------
Total data point stored  = 128
-----------------------------------------------------
Acquired sensor responses from 24 sensors
-----------------------------------------------------

Data Points	 Sen-1	 Sen-2	 Sen-3	 Sen-4	 Sen-5	 Sen-6	 Sen-7	 Sen-8	 Sen-9	 Sen-10	 Sen-11	 Sen-12	 Sen-13	 Sen-14	 Sen-15	 Sen-16	 Sen-17	 Sen-18	 Sen-19	 Sen-20	 Sen-21	 Sen-22	 Sen-23	 Sen-24	Humidity (%r.h.)
0.000	306.448	276.654	253.831	303.488	313.061	314.732	315.066	301.076	289.522	305.421	232.512	217.161	112.978	143.058	165.499	115.604	105.863	104.335	104.097	117.609	129.593	113.312	185.815	202.766	40.961
1.000	306.997	276.439	253.640	303.058	312.918	314.732	315.281	301.244	289.641	305.923	232.536	216.946	112.858	143.058	165.427	115.460	105.983	104.383	104.216	117.752	129.450	113.240	185.815	202.789	40.375
2.000	306.830	276.917	253.568	303.488	313.156	314.708	315.114	301.267	289.784	305.756	232.679	217.209	112.739	142.819	165.260	115.460	105.863	104.335	104.168	117.704	129.522	113.216	185.672	202.718	40.194
3.000	306.949	276.940	253.521	303.488	313.133	314.684	315.042	301.100	289.665	305.708	232.440	217.233	112.667	142.652	165.069	115.365	105.720	104.192	104.097	117.609	129.426	113.073	185.815	202.742	40.510
4.000	306.973	277.346	254.547	303.130	312.870	314.851	315.281	301.291	289.235	305.636	232.249	217.114	112.596	142.437	165.022	115.436	105.935	104.383	104.216	117.704	129.498	113.169	185.696	202.598	40.871
5.000	307.212	277.251	254.619	303.273	313.300	314.804	315.210	301.220	289.450	305.636	232.393	217.209	112.548	142.270	164.831	115.365	105.911	104.216	104.192	117.609	129.570	113.216	185.768	202.789	40.646
6.000	307.355	277.346	254.595	303.273	313.061	315.019	315.400	301.053	289.450	305.923	232.225	217.185	112.596	142.127	164.640	115.436	105.887	104.240	104.192	117.537	129.474	113.049	185.601	202.527	40.104
7.000	307.116	277.895	254.881	303.512	313.061	314.565	315.186	301.196	289.402	305.684	232.655	217.472	112.476	142.079	164.544	115.317	105.744	104.168	104.001	117.561	129.546	113.240	185.648	202.598	40.285
8.000	306.878	277.871	254.404	303.512	313.204	314.637	315.329	301.435	289.617	305.994	232.655	217.305	112.309	141.960	164.473	115.269	105.863	104.144	104.097	117.609	129.426	113.025	185.648	202.455	40.871
9.000	307.021	278.349	254.977	303.153	312.751	314.637	315.090	301.411	289.617	306.042	232.082	217.710	112.357	142.008	164.186	115.532	105.911	104.168	104.097	117.633	129.379	113.025	185.624	202.598	40.826
10.000	305.493	275.890	254.475	303.201	312.918	314.589	315.257	301.005	289.689	305.326	232.202	257.388	113.407	143.225	164.496	115.389	105.839	104.216	103.977	117.728	129.164	113.503	185.983	161.035	40.194
11.000	269.850	254.213	250.894	301.673	312.345	314.255	315.090	299.023	290.071	291.408	230.745	294.034	148.191	164.067	168.054	117.036	106.269	104.526	104.288	119.471	128.782	126.538	187.654	126.251	39.879
12.000	226.949	289.737	240.820	298.307	311.819	313.443	314.493	295.418	290.691	251.181	229.241	309.528	193.025	130.548	178.844	120.378	107.009	105.362	104.622	123.028	128.185	168.364	189.038	111.736	31.802
13.000	250.894	307.570	229.361	293.103	310.483	312.512	313.896	291.479	290.739	224.705	228.215	318.194	168.316	111.951	192.190	125.607	107.916	106.221	105.052	127.564	128.233	194.529	189.946	103.452	41.232
14.000	271.187	316.976	237.883	285.988	309.193	311.533	313.514	286.490	290.500	232.846	227.331	321.655	147.284	101.662	179.489	132.912	109.516	107.415	105.672	132.220	128.591	184.335	190.757	98.343	53.008
15.000	287.851	323.135	250.130	277.394	307.785	309.981	312.416	281.214	289.140	248.555	227.284	325.475	129.522	96.099	165.308	140.766	110.972	108.561	106.556	136.875	129.283	169.462	191.187	95.598	43.804
16.000	301.172	326.740	261.041	268.059	305.398	308.358	311.605	276.248	288.686	261.996	226.687	327.361	118.373	92.900	153.658	150.507	113.049	110.184	107.582	142.294	130.143	157.191	191.903	93.306	29.230
17.000	310.865	329.032	269.277	259.059	303.392	306.400	309.981	270.853	287.612	272.619	225.923	329.438	108.967	90.560	143.750	160.199	115.365	112.237	108.871	148.239	131.121	146.185	192.142	92.208	35.457
18.000	316.308	330.441	275.818	249.892	300.456	304.347	308.334	264.335	286.728	281.309	225.827	330.154	102.306	88.531	136.230	169.462	118.182	114.338	110.662	154.732	132.172	136.708	192.763	91.205	51.835
19.000	320.438	332.016	281.214	241.202	297.304	301.387	305.899	257.484	285.535	288.614	225.684	330.966	97.985	87.457	130.334	177.388	121.095	116.702	112.763	160.820	133.270	129.140	192.739	90.441	50.436
20.000	324.067	333.306	285.917	232.822	293.795	298.689	303.368	250.656	284.628	294.511	225.039	331.658	94.786	87.027	125.654	185.744	124.795	119.781	115.436	168.221	134.416	123.434	192.858	89.200	33.066
21.000	327.266	333.473	289.092	226.209	290.691	295.371	299.883	244.783	283.076	299.167	225.421	331.849	91.921	86.287	122.193	193.479	128.257	123.052	118.850	174.929	135.801	119.113	192.954	88.603	30.088
22.000	328.340	334.046	291.981	222.031	286.538	291.885	296.111	238.313	281.858	302.604	225.421	332.637	90.823	85.260	119.423	196.821	132.697	126.705	122.909	181.614	136.994	115.484	193.216	88.483	46.421
23.000	329.939	334.380	294.678	225.421	282.240	288.447	291.933	232.798	280.665	305.732	225.398	332.375	88.937	84.926	117.275	192.500	136.923	130.405	127.397	187.176	138.283	112.452	193.264	87.457	54.407
24.000	331.085	334.953	296.779	231.318	277.346	284.317	287.206	227.976	278.659	308.477	224.872	332.088	88.531	84.902	115.413	186.245	141.673	133.962	131.814	191.951	139.835	110.041	193.216	87.528	39.157
25.000	331.133	334.833	298.307	236.570	272.691	281.023	281.978	225.302	277.227	309.862	225.087	333.353	88.173	85.260	113.980	181.661	146.782	137.830	137.281	194.649	141.244	108.203	193.741	88.149	27.877
26.000	331.300	335.168	298.665	237.191	268.991	279.375	278.993	225.111	277.012	309.862	225.135	333.902	88.006	84.592	113.550	181.184	150.459	139.167	140.766	194.577	141.769	108.609	193.455	87.146	39.292
27.000	331.754	334.857	299.525	236.666	268.227	279.757	277.967	225.421	277.394	309.026	224.801	333.091	87.624	84.091	113.861	181.447	151.390	138.976	141.244	194.243	141.793	109.182	193.574	87.505	54.723
28.000	332.184	335.239	299.238	236.403	267.510	279.829	277.752	225.684	277.752	309.599	225.445	333.329	87.624	84.998	113.861	182.234	151.605	138.451	141.411	194.028	141.339	109.683	193.431	88.125	45.744
29.000	331.825	335.574	299.620	235.472	267.439	280.259	277.561	226.114	277.824	308.859	225.589	333.306	87.648	84.735	113.598	182.831	151.700	138.236	141.554	193.909	141.100	109.588	193.216	87.696	29.230
30.000	332.709	336.147	300.074	238.385	266.627	279.184	276.367	225.565	277.179	310.029	225.230	332.112	87.266	84.377	113.789	179.704	152.727	139.620	142.939	194.362	141.888	108.298	193.741	87.887	33.066
31.000	331.945	335.001	301.148	242.443	262.927	275.651	272.452	224.872	276.773	310.196	225.230	332.709	87.552	84.473	112.667	175.383	156.475	143.058	147.069	194.076	142.413	108.967	193.646	88.364	50.662
32.000	330.489	335.263	301.697	244.043	259.704	274.434	270.447	226.591	278.015	307.045	225.302	331.539	89.582	85.141	111.760	173.807	159.364	144.180	148.907	193.121	141.387	112.476	193.192	89.176	51.655
33.000	326.693	334.929	301.864	243.828	259.775	275.532	272.595	232.273	279.614	300.480	225.827	330.250	93.019	84.687	112.643	174.619	159.388	142.867	146.878	187.391	139.191	119.686	192.715	90.226	34.780
34.000	323.852	334.428	302.007	240.844	261.781	278.182	275.556	239.841	281.715	290.691	225.923	327.862	95.049	85.571	111.784	177.221	157.573	140.671	143.392	179.632	137.042	128.137	192.023	91.945	29.501
35.000	320.032	333.520	302.079	236.905	265.028	280.808	279.399	247.337	283.482	279.232	226.902	325.021	99.322	85.571	113.121	181.208	154.088	138.140	139.429	171.897	135.371	139.405	191.282	94.189	44.616
36.000	315.019	332.184	301.936	231.629	268.752	283.338	283.816	254.475	284.747	265.791	227.451	321.130	103.906	86.717	113.145	186.269	150.435	135.132	135.586	164.831	134.082	152.966	190.709	97.245	53.550
37.000	309.408	332.303	300.575	226.042	272.667	286.394	287.612	260.683	286.203	251.348	228.167	317.645	110.686	87.337	113.885	192.023	146.448	132.506	131.551	158.409	132.697	168.316	189.659	101.423	41.232
38.000	300.241	330.608	299.286	221.244	276.487	288.686	291.169	265.433	287.087	235.401	228.549	313.371	119.495	88.937	114.768	197.776	142.151	129.808	127.851	153.228	131.885	184.097	189.564	106.436	29.817
39.000	289.283	329.868	298.355	222.461	280.569	291.766	294.750	270.089	287.421	220.551	228.764	308.191	129.450	89.892	116.630	196.415	138.546	127.302	124.198	148.668	131.265	198.659	189.158	110.542	37.577
40.000	275.508	327.910	296.445	228.692	284.222	294.272	297.806	273.550	288.018	228.262	229.337	303.440	143.440	90.871	118.301	190.041	134.702	124.890	121.333	145.111	130.859	191.187	189.014	115.675	50.617
41.000	260.754	327.170	294.941	236.117	287.540	296.349	300.623	276.726	288.280	239.841	229.743	298.808	159.316	92.542	120.163	182.593	131.503	122.575	118.588	141.912	130.548	179.346	188.609	120.426	45.744
42.000	244.520	325.547	292.339	242.801	290.071	297.901	302.509	279.184	288.853	249.987	229.814	294.249	175.048	94.619	122.002	175.598	128.686	120.235	116.296	139.262	130.572	168.937	188.274	125.917	33.923
43.000	230.411	323.828	289.378	249.176	293.079	300.432	304.466	281.739	288.805	258.438	229.957	289.975	189.086	96.194	124.198	168.818	125.678	118.230	114.386	136.946	130.357	160.605	188.179	130.716	34.419
44.000	219.883	321.727	286.132	255.239	295.060	302.509	306.090	283.458	288.614	265.123	230.674	285.320	199.352	98.176	127.254	163.446	123.673	116.224	112.787	135.275	130.119	154.231	187.821	134.750	45.789
45.000	222.628	319.674	282.742	260.754	297.209	304.061	307.594	285.224	288.638	270.590	230.626	281.070	197.322	100.277	130.787	157.836	121.429	114.505	111.450	133.533	130.143	148.740	187.678	139.023	47.594
46.000	229.265	317.931	278.993	265.242	298.880	305.708	308.406	286.561	288.996	274.911	230.817	276.940	190.232	102.234	134.869	153.252	119.471	112.954	110.519	131.909	130.095	144.419	187.510	142.915	39.112
47.000	236.499	315.019	274.744	269.325	300.575	306.782	309.408	287.898	289.044	278.206	230.912	273.407	182.760	104.908	139.000	149.074	118.086	111.855	109.635	130.739	129.952	140.241	187.415	146.544	34.464
48.000	244.019	312.130	270.805	273.121	302.413	308.238	310.387	288.710	288.877	281.357	231.270	269.659	175.430	107.320	143.655	145.469	116.582	110.781	108.919	129.474	130.047	137.782	187.176	149.838	41.638
49.000	250.250	308.764	266.412	276.296	303.082	308.573	310.769	290.214	289.044	283.744	231.103	267.224	169.295	110.423	148.764	142.461	115.341	109.874	108.298	128.686	129.904	135.156	187.105	153.133	46.827
50.000	256.170	305.732	261.232	279.543	304.395	309.599	311.247	290.978	288.973	286.394	231.294	263.213	163.446	114.338	153.348	139.262	114.314	108.991	107.892	127.755	129.880	132.506	187.057	156.427	41.819
51.000	260.348	302.151	255.884	282.049	305.469	310.530	311.557	291.551	288.901	288.042	231.175	260.133	158.456	118.110	159.006	136.445	113.288	108.346	107.415	126.896	129.880	130.716	187.033	159.698	36.089
52.000	264.526	297.663	250.894	284.055	306.138	310.697	312.130	292.506	288.901	289.522	231.485	257.030	154.684	122.145	164.401	134.106	112.285	107.749	107.152	126.394	130.023	129.259	186.890	162.348	38.796
53.000	268.179	293.771	246.072	286.323	306.925	311.438	312.536	292.912	289.235	290.978	231.676	254.762	151.557	126.180	169.749	132.291	111.712	107.415	106.675	125.678	129.952	128.280	186.866	164.807	45.112
54.000	271.020	290.119	241.703	287.827	307.188	311.796	312.965	293.628	288.925	291.837	231.223	252.804	148.907	130.310	174.714	130.668	111.163	107.081	106.508	125.272	129.808	127.111	186.770	167.409	43.308
55.000	273.240	286.132	238.265	289.140	307.976	311.915	313.061	293.843	288.949	292.554	231.605	250.369	145.995	133.938	178.892	129.426	110.614	106.770	106.221	124.747	129.928	126.203	186.555	169.438	38.705
56.000	275.747	282.073	234.541	290.071	308.286	312.225	313.228	294.631	289.331	293.843	231.605	248.364	143.989	137.185	182.783	128.304	110.256	106.508	105.911	124.198	129.904	125.225	186.579	171.348	37.803
57.000	277.800	278.492	231.676	291.360	309.241	312.655	313.300	294.798	289.020	294.416	231.820	246.167	142.055	140.981	185.744	127.254	109.946	106.484	105.768	123.983	129.784	124.699	186.484	173.067	42.992
58.000	279.566	275.102	229.528	291.837	308.979	312.774	313.562	295.418	289.259	295.084	231.915	244.449	140.169	144.872	188.680	126.490	109.540	106.221	105.529	123.506	129.904	124.246	186.460	174.905	44.210
59.000	280.665	270.781	227.904	293.150	309.361	312.774	313.276	295.371	289.211	295.657	231.485	243.088	138.546	149.480	190.781	125.869	109.397	106.054	105.672	123.171	129.784	123.410	186.388	176.767	40.059
60.000	282.598	266.197	226.687	293.580	309.575	312.703	313.467	295.872	289.044	295.848	231.987	241.273	137.090	153.419	192.595	124.867	109.015	105.863	105.410	123.004	129.832	123.148	186.317	178.176	37.984
61.000	283.577	261.542	226.185	294.272	309.838	312.989	313.920	296.254	289.140	296.326	231.820	239.960	135.944	158.265	194.147	124.341	108.824	105.744	105.410	122.622	129.808	122.551	186.388	179.584	40.510
62.000	285.415	256.552	225.971	294.965	310.172	313.085	314.016	296.349	289.020	296.827	231.939	238.361	134.678	162.587	194.672	123.959	108.752	105.672	105.434	122.431	129.856	122.193	186.174	181.017	44.300
63.000	286.108	252.375	225.589	295.347	310.077	313.228	313.825	296.636	289.092	297.185	232.154	237.454	133.580	167.146	194.935	123.219	108.394	105.601	105.219	122.073	129.856	121.882	186.317	182.139	41.683
64.000	286.728	248.364	225.947	295.800	310.268	313.204	313.992	296.708	289.068	297.591	231.796	236.379	132.482	171.229	194.959	122.766	108.298	105.362	105.147	121.882	129.904	121.476	186.365	183.380	39.112
65.000	287.779	244.091	226.830	296.182	310.674	313.491	314.064	297.066	289.402	297.567	232.082	235.329	131.623	175.144	194.577	122.431	108.155	105.553	105.123	121.644	129.689	121.095	186.221	184.335	38.931
66.000	288.758	240.366	227.427	296.397	310.435	313.180	314.159	297.543	289.235	298.092	231.748	233.944	130.883	179.298	193.741	121.930	107.988	105.362	105.028	121.500	129.808	120.856	186.245	185.410	42.856
67.000	289.928	236.499	227.833	297.328	310.841	313.491	313.992	297.328	288.805	298.379	231.963	233.061	129.713	182.855	192.882	121.596	107.892	105.243	105.075	121.309	129.975	120.498	186.197	186.365	42.766
68.000	290.811	232.512	229.002	297.352	310.912	313.658	314.183	297.758	289.140	298.713	231.748	231.963	128.973	187.296	191.808	121.118	107.630	105.243	105.052	121.095	129.761	120.020	186.054	188.060	39.518
69.000	292.172	228.525	229.575	297.639	311.103	313.777	314.326	298.188	289.378	299.071	232.154	230.578	128.089	191.068	190.781	120.951	107.582	105.075	104.837	121.047	129.808	119.972	186.150	189.038	38.976
70.000	292.148	225.469	230.554	298.068	311.056	313.610	314.183	297.854	289.259	299.310	232.106	230.292	127.564	194.004	189.683	120.474	107.463	105.123	104.861	120.880	129.856	119.662	186.221	189.635	41.413
71.000	292.792	222.963	231.438	298.307	311.461	313.944	314.589	298.188	289.020	299.095	231.724	229.957	127.087	196.869	188.895	120.402	107.463	105.075	104.837	120.760	129.784	119.614	186.126	189.898	43.082
72.000	293.294	221.053	232.202	298.474	311.390	313.968	314.422	298.403	289.211	299.405	232.082	229.361	126.657	199.041	187.940	120.140	107.391	105.075	104.837	120.593	129.713	119.352	186.054	190.351	40.330
73.000	293.413	219.405	232.607	298.617	311.461	313.825	314.278	298.283	289.044	299.572	232.034	229.026	125.869	200.736	187.200	120.044	107.248	105.075	104.598	120.522	129.761	119.328	186.006	191.020	39.066
74.000	294.416	219.095	233.371	298.808	311.581	314.159	314.589	298.355	289.068	299.811	232.607	227.713	125.511	201.381	186.388	119.758	107.248	104.932	104.741	120.283	129.737	119.113	186.006	191.593	40.104
75.000	294.941	220.313	234.135	299.405	311.533	314.135	314.613	298.546	289.140	299.931	232.249	226.806	124.867	200.259	185.648	119.710	107.391	104.932	104.622	120.140	129.713	118.803	186.054	192.381	42.766
76.000	295.299	222.557	235.019	299.429	311.509	313.920	314.469	298.474	288.996	300.336	232.488	226.663	124.461	198.039	184.837	119.399	107.200	104.956	104.598	120.020	129.641	118.707	185.983	193.097	41.413
77.000	295.323	224.968	235.902	299.525	311.485	313.682	314.302	298.689	289.020	300.718	232.321	225.756	123.816	195.031	183.977	119.232	107.176	104.741	104.550	119.996	129.784	118.516	186.030	193.932	39.337
78.000	296.135	227.618	236.379	299.501	311.485	313.610	314.374	298.999	289.235	300.527	232.440	224.705	123.362	192.619	183.213	118.922	107.057	104.837	104.646	119.829	129.737	118.134	185.911	194.625	39.292
79.000	296.063	230.077	236.690	299.596	311.891	314.064	314.493	298.737	289.187	300.718	232.225	224.896	123.219	190.447	182.569	119.065	106.961	104.717	104.598	119.805	129.808	118.230	185.911	194.672	41.774
80.000	296.922	232.464	237.692	299.835	311.939	314.087	314.589	299.238	289.331	300.885	232.488	224.753	122.670	187.988	181.852	118.779	106.866	104.789	104.479	119.590	129.761	118.206	185.983	195.126	41.909
81.000	297.066	234.135	238.074	300.241	311.891	313.920	314.899	299.214	289.068	300.957	232.202	223.941	122.551	185.672	181.279	118.731	106.890	104.813	104.574	119.614	129.737	117.895	186.006	195.484	39.698
82.000	297.686	236.523	238.600	299.954	311.819	314.111	314.660	298.976	289.092	300.766	232.082	223.774	122.073	183.380	180.635	118.612	106.866	104.813	104.383	119.519	129.617	117.848	185.983	195.795	39.247
83.000	297.949	238.791	239.149	299.978	311.963	314.016	314.732	299.262	289.355	301.315	232.416	223.344	121.644	181.303	180.253	118.373	106.723	104.789	104.455	119.471	129.522	117.561	185.815	196.272	40.916
84.000	298.498	240.891	239.865	300.408	311.891	314.278	314.875	299.596	289.378	301.196	232.321	223.273	121.357	179.250	179.680	118.373	106.866	104.813	104.526	119.543	129.641	117.728	186.078	196.511	42.135
85.000	298.140	242.706	240.032	300.360	312.130	314.326	314.565	299.286	289.426	301.554	232.154	222.724	121.118	177.293	179.250	118.325	106.842	104.789	104.502	119.399	129.593	117.466	185.863	196.726	40.555
86.000	298.498	244.783	240.677	300.265	311.867	313.801	314.278	299.310	289.259	301.482	232.321	222.390	120.927	175.048	178.677	118.086	106.627	104.693	104.574	119.471	129.737	117.322	185.983	197.060	39.472
87.000	298.689	246.764	241.488	300.981	312.154	314.183	314.541	299.405	289.331	301.769	232.416	221.960	120.689	172.828	178.033	117.919	106.603	104.741	104.550	119.328	129.665	117.179	185.863	197.537	40.149
88.000	298.904	248.268	241.584	300.694	311.939	314.064	314.637	299.596	289.235	301.840	232.106	221.745	120.426	171.444	177.770	117.895	106.651	104.670	104.479	119.209	129.665	117.227	185.863	197.943	41.774
89.000	299.763	249.987	242.276	301.220	312.273	314.541	314.732	299.453	289.140	301.554	232.464	221.387	120.020	170.035	177.316	117.943	106.675	104.646	104.455	119.161	129.570	117.036	185.839	198.206	41.187
