-----------------------------------------------------
BloodHound 307 VOC Analyser V2017.1
RoboScientific Ltd 
Espace North
Wisbech Road
Littleport
Cambridgeshire, UK
CB6 1RA 
-----------------------------------------------------
Date = 13/04/2022
Time = 11:51:22
Data is protected by RoboScientific Limited
-----------------------------------------------------
Name of the experiment = "08b_Day 24"
-----------------------------------------------------
Repeat No. = 4/4
-----------------------------------------------------
Experimental Time (in sec) and Flow Profile :
-----------------------------------------------------
Baseline = 2.00
Absorb = 4.00
Pause = 1.00
Desorb = 5.00
Flush = 20.00
Wait = 5.00
Higher Flow (V) = 4.00
Medium Flow (V) = 3.00
Low Flow (V) = 1.00
-----------------------------------------------------
Total Profile Time = 37 in sec
-----------------------------------------------------
Acquired data point per second = 4
--------------------------------------------------
Total data point stored  = 128
-----------------------------------------------------
Acquired sensor responses from 24 sensors
-----------------------------------------------------

Data Points	 Sen-1	 Sen-2	 Sen-3	 Sen-4	 Sen-5	 Sen-6	 Sen-7	 Sen-8	 Sen-9	 Sen-10	 Sen-11	 Sen-12	 Sen-13	 Sen-14	 Sen-15	 Sen-16	 Sen-17	 Sen-18	 Sen-19	 Sen-20	 Sen-21	 Sen-22	 Sen-23	 Sen-24	Humidity (%r.h.)
0.000	301.100	243.303	242.992	299.668	311.772	313.586	314.541	298.808	289.665	299.095	230.626	231.700	118.254	176.672	176.720	118.874	106.794	105.052	104.383	119.901	129.355	120.140	187.654	187.630	40.285
1.000	301.912	243.709	242.825	299.978	311.700	313.562	314.446	298.785	289.880	299.262	230.578	232.154	117.991	176.433	176.553	118.731	106.699	105.147	104.622	119.877	129.259	119.853	187.606	187.582	42.856
2.000	301.363	244.114	243.207	299.787	312.034	313.658	314.374	298.689	289.832	299.143	230.602	231.915	117.919	176.147	176.624	118.779	106.770	105.266	104.622	119.925	129.116	119.805	187.725	187.678	42.089
3.000	301.864	244.162	243.350	299.883	312.130	314.040	314.637	299.071	289.665	298.904	231.056	232.034	117.776	175.789	176.266	118.683	106.627	105.195	104.622	119.996	129.235	119.805	187.678	187.534	39.608
4.000	301.697	244.329	243.350	299.978	311.939	313.586	314.326	298.999	289.737	299.119	230.578	232.082	117.848	175.454	176.314	118.755	106.770	105.195	104.598	119.853	129.379	119.949	187.678	187.654	38.976
5.000	301.912	244.926	243.159	299.740	312.082	313.896	314.541	299.047	289.760	298.832	230.626	231.915	117.752	175.048	176.075	118.659	106.794	105.290	104.622	119.829	129.235	119.805	187.773	187.773	39.608
6.000	302.246	245.475	243.637	299.692	311.819	313.825	314.517	299.143	289.880	299.358	230.650	231.843	117.800	174.810	176.003	118.850	106.794	105.147	104.574	119.925	129.164	119.734	187.701	187.749	42.405
7.000	302.461	245.284	243.494	299.883	312.440	313.849	314.780	299.381	289.713	299.262	230.578	231.772	117.466	174.547	175.908	118.803	106.794	105.195	104.622	119.877	129.188	119.638	187.725	187.821	42.631
8.000	302.318	245.523	243.541	299.931	312.321	313.777	314.565	299.190	289.975	299.525	230.483	231.700	117.466	174.237	175.836	118.683	106.770	105.123	104.717	119.829	129.211	119.590	187.654	187.869	40.149
9.000	302.007	246.239	243.661	300.145	311.939	313.849	314.374	299.023	289.975	299.334	230.841	231.342	117.299	174.046	175.836	118.731	106.603	105.099	104.455	119.686	129.164	119.543	187.701	187.988	39.112
10.000	300.527	244.663	243.518	299.954	312.225	313.658	314.637	298.641	290.047	298.522	230.148	267.486	119.519	175.263	175.908	118.564	106.723	105.147	104.526	120.235	129.092	120.402	187.821	154.064	39.112
11.000	264.455	269.325	240.963	297.734	311.342	313.371	314.422	296.875	290.166	278.826	228.764	297.424	157.430	151.008	178.797	120.331	107.105	105.768	104.861	122.097	128.471	141.650	189.325	124.365	43.939
12.000	235.448	295.991	233.777	294.440	310.745	312.273	313.992	293.341	291.050	234.565	227.618	310.602	182.306	122.909	186.221	123.983	107.964	106.675	105.290	125.487	128.233	183.738	190.638	110.256	50.527
13.000	261.876	310.793	230.554	289.665	309.623	310.960	313.133	288.424	290.500	231.414	226.854	318.027	156.093	108.155	189.277	128.639	108.871	107.678	105.792	129.952	128.304	185.648	191.259	103.166	43.262
14.000	282.455	319.435	239.411	282.598	308.620	309.504	312.583	283.768	290.190	248.817	226.138	322.204	137.400	99.943	177.579	135.395	109.898	109.015	106.460	134.750	128.806	169.390	192.023	98.033	31.080
15.000	297.472	323.995	249.796	275.412	307.522	308.024	311.438	279.089	289.235	262.712	225.851	325.762	121.667	95.502	165.977	143.774	111.569	110.614	107.439	139.286	129.426	155.592	192.619	95.049	31.261
16.000	307.952	327.289	259.011	265.982	305.589	306.567	310.912	274.290	288.376	273.479	225.445	327.313	110.781	92.017	154.541	153.467	113.360	112.357	108.298	144.562	130.453	144.753	192.930	93.449	44.255
17.000	314.851	329.748	266.317	256.576	303.679	304.323	309.265	268.346	287.564	281.261	224.753	328.268	103.548	89.916	145.780	162.252	115.198	114.338	109.993	150.530	131.718	136.302	193.407	92.232	54.136
18.000	320.271	331.372	272.524	247.839	301.339	301.769	307.379	262.067	286.370	287.898	224.681	329.510	98.558	88.483	138.331	170.608	117.251	116.678	111.545	156.475	132.363	129.522	193.741	90.895	46.105
19.000	323.995	332.255	277.943	239.746	298.594	299.405	305.732	255.741	284.914	293.652	224.586	330.703	95.884	87.146	132.649	178.988	120.187	119.352	113.455	163.183	133.628	125.010	193.909	90.226	31.802
20.000	326.239	332.661	282.002	232.440	296.135	296.708	303.249	249.223	284.222	297.591	224.658	332.064	92.661	86.072	128.376	186.842	123.243	122.312	116.009	170.131	134.750	120.832	194.052	90.322	28.915
21.000	328.197	333.759	285.296	225.851	292.697	293.127	300.193	242.825	283.076	301.315	224.443	331.993	91.253	86.335	124.914	193.765	126.036	125.416	119.399	177.125	136.135	117.060	194.123	88.865	41.593
22.000	329.462	333.735	287.707	222.652	289.665	289.665	296.159	236.905	281.667	304.252	224.347	332.804	89.677	86.168	122.312	197.108	129.593	128.949	122.909	183.237	137.305	114.028	194.243	88.531	53.640
23.000	330.107	334.881	290.238	224.705	285.606	286.108	291.933	231.342	280.044	307.164	224.299	332.136	88.913	85.189	119.877	193.503	133.413	132.291	126.920	188.656	138.713	111.808	194.362	88.030	49.669
24.000	331.396	334.356	292.363	230.148	281.500	282.169	287.588	227.069	278.468	309.026	223.941	332.756	88.125	84.544	117.895	187.797	137.209	135.896	131.503	193.097	140.217	109.182	194.529	87.958	34.600
25.000	330.990	334.428	294.105	234.780	277.155	278.898	282.479	224.968	277.513	310.912	224.347	332.780	87.791	84.425	116.630	183.547	141.626	139.668	136.636	194.816	141.721	107.487	194.338	88.221	27.787
26.000	331.348	334.905	294.774	235.424	274.219	277.991	279.805	224.801	276.678	310.411	224.252	333.520	87.433	84.234	116.081	183.261	145.087	141.077	139.978	194.720	142.318	108.036	194.362	88.221	37.352
27.000	331.587	334.786	295.156	234.589	273.741	278.110	278.253	224.634	276.487	310.769	224.204	332.661	87.314	85.093	115.914	183.500	145.756	140.766	140.838	194.553	142.270	108.251	194.505	88.173	51.790
28.000	332.184	335.932	295.562	234.064	273.240	278.086	278.230	224.729	276.558	309.957	223.535	332.804	87.672	84.664	116.415	183.834	146.042	140.575	141.268	194.529	142.032	108.633	194.625	87.863	52.783
29.000	331.205	335.168	296.015	233.777	273.121	278.230	277.776	225.087	276.869	310.148	224.443	332.995	87.266	84.640	116.129	184.598	146.138	140.360	141.411	194.386	141.793	108.895	194.601	87.910	38.841
30.000	332.852	334.977	296.111	235.926	271.784	277.107	276.009	224.896	276.749	310.124	223.822	333.473	87.051	84.091	115.986	181.900	147.331	141.745	142.748	194.314	142.223	107.940	194.625	87.839	27.741
31.000	331.396	335.693	297.352	240.748	268.752	273.765	272.882	225.207	275.627	310.912	224.204	332.780	87.218	84.950	115.246	177.340	150.435	144.992	146.663	193.837	143.368	108.060	194.672	88.364	34.013
32.000	331.515	335.120	298.092	243.350	265.959	272.190	270.160	224.968	275.985	308.382	224.252	331.969	89.176	85.022	114.625	175.335	153.491	146.926	149.194	194.147	142.485	110.065	194.386	88.006	48.993
33.000	328.650	336.027	298.116	243.207	265.051	272.285	270.566	227.522	278.062	303.440	224.514	331.300	90.847	84.759	114.314	175.192	154.637	146.472	148.883	192.548	140.981	115.246	194.290	89.558	54.181
34.000	326.096	335.144	298.212	241.918	265.553	274.195	272.500	232.679	280.092	297.495	224.944	329.295	93.401	85.141	114.864	176.720	153.682	144.872	146.544	187.152	138.928	121.691	193.837	90.751	42.089
35.000	323.708	333.544	298.737	238.695	266.914	275.842	275.747	238.814	281.500	289.402	224.681	326.764	95.645	85.475	114.768	179.298	151.629	142.986	143.655	180.539	137.281	130.047	193.216	93.115	29.276
36.000	320.295	334.093	298.164	235.520	269.611	277.967	278.826	245.427	283.171	280.450	225.612	325.021	98.940	85.189	115.198	183.237	149.265	140.504	140.146	174.117	135.562	138.474	192.786	94.571	31.396
37.000	316.546	333.043	297.376	231.127	273.001	280.832	282.240	251.491	284.270	269.396	226.329	321.584	102.688	86.621	115.460	187.081	146.257	137.854	136.851	168.292	134.249	148.979	192.118	97.842	44.661
38.000	311.891	332.327	297.209	226.066	276.033	283.052	285.511	256.505	285.654	258.558	226.806	318.504	107.582	87.528	116.177	191.927	143.321	135.586	133.556	162.587	133.389	160.438	191.330	101.017	53.189
39.000	306.400	331.205	295.896	221.888	278.588	285.368	288.829	260.993	286.538	246.979	226.830	315.973	112.357	88.722	116.869	196.367	140.456	133.365	130.262	157.812	132.482	172.446	191.115	104.335	44.797
40.000	300.336	330.942	294.965	220.504	281.142	287.492	291.432	265.195	287.158	234.995	227.522	312.034	119.137	89.104	117.728	198.612	137.663	131.050	127.254	153.324	132.005	184.383	190.900	107.129	32.569
41.000	291.909	330.441	294.320	223.583	284.055	289.760	294.463	268.585	287.230	223.440	227.737	308.429	126.729	89.629	118.898	195.222	134.726	128.853	124.461	149.814	131.408	195.556	190.638	111.044	31.216
42.000	282.909	328.435	292.554	228.979	286.657	291.718	297.042	271.951	287.588	218.785	228.167	304.896	136.111	90.584	120.092	189.874	131.981	126.776	122.121	146.639	130.859	199.829	190.256	114.696	41.187
43.000	272.381	328.268	290.500	234.613	288.901	293.771	299.429	274.649	287.851	227.570	228.525	301.220	146.329	91.850	121.667	184.669	129.952	124.867	119.590	144.013	130.692	191.641	189.922	118.349	50.256
44.000	262.497	327.266	289.140	240.295	291.360	295.800	301.244	277.012	288.185	235.783	228.382	297.830	157.239	92.828	123.601	178.844	127.707	123.076	117.728	141.650	130.548	183.261	189.731	121.835	46.285
45.000	252.375	326.096	286.991	245.165	293.079	297.233	302.843	278.850	288.495	243.159	228.812	294.726	167.886	94.118	125.750	173.210	125.798	121.524	116.224	139.596	130.310	175.526	189.564	125.416	36.269
46.000	243.279	324.568	285.081	249.820	294.774	298.522	304.108	280.665	288.853	249.653	228.644	291.551	177.054	95.622	128.137	168.245	124.007	120.163	114.840	137.949	130.262	169.152	189.611	128.471	32.118
47.000	235.974	323.303	282.121	254.881	296.779	300.503	305.326	282.431	289.068	255.025	228.644	288.352	183.285	96.242	130.978	163.732	122.264	118.301	113.407	136.374	130.214	163.804	189.349	131.241	39.202
48.000	231.127	322.109	279.161	258.797	297.997	301.721	306.734	283.959	288.996	260.038	229.241	285.487	188.704	97.221	133.270	159.913	120.856	116.941	112.619	134.798	130.095	159.531	189.277	133.795	47.820
49.000	225.708	320.509	276.176	263.070	299.358	303.130	307.618	284.819	288.925	264.192	228.907	283.720	193.527	99.203	136.326	155.806	119.447	115.675	111.521	133.747	130.143	154.947	189.182	136.111	46.331
50.000	220.909	319.960	273.049	266.890	300.551	304.634	308.429	286.251	289.235	268.609	228.979	280.307	198.659	100.420	140.337	151.748	118.110	114.291	110.829	132.602	129.952	150.793	188.991	139.525	38.525
51.000	222.819	318.074	269.301	270.471	301.769	305.732	308.811	286.967	288.973	271.497	229.217	277.657	196.272	101.685	143.965	148.262	116.988	113.073	109.969	131.551	130.047	147.284	189.014	142.223	33.517
52.000	230.077	316.809	265.577	273.335	302.461	306.448	309.575	288.042	288.829	274.171	229.265	275.365	189.325	103.189	147.976	145.326	116.105	112.285	109.397	130.357	129.784	144.323	188.847	144.419	37.984
53.000	236.761	315.257	261.232	276.176	303.750	307.475	310.124	288.758	289.211	276.535	229.432	272.882	183.213	104.025	152.297	142.700	115.102	111.283	108.847	129.832	129.999	142.151	188.871	146.567	45.654
54.000	243.088	313.610	257.579	278.421	304.371	308.238	310.459	289.617	288.996	278.683	229.671	270.877	176.648	105.744	156.356	140.265	114.243	110.781	108.633	129.211	129.808	140.193	188.704	148.597	46.195
55.000	248.340	313.180	254.261	280.044	304.992	309.002	310.960	290.357	289.211	280.187	229.528	269.014	171.324	107.439	160.557	138.570	113.646	110.017	107.988	128.328	129.784	138.689	188.728	150.841	40.736
56.000	252.757	311.175	250.011	281.715	305.660	309.098	311.223	291.002	289.020	281.524	229.671	267.606	166.573	109.038	164.544	136.779	112.954	109.492	107.558	127.684	129.832	137.305	188.513	152.464	34.915
57.000	256.624	309.026	247.075	283.267	306.138	309.886	311.915	291.384	289.402	283.553	229.528	265.672	162.825	110.710	168.221	135.323	112.405	109.038	107.487	127.373	129.808	135.968	188.561	154.159	37.126
58.000	260.181	306.949	243.900	284.699	306.949	310.077	311.748	291.909	289.259	284.246	229.647	263.977	159.411	112.357	171.515	134.010	111.975	108.776	107.367	126.896	129.784	134.798	188.537	155.639	43.894
59.000	263.046	305.183	240.796	286.060	307.116	310.650	311.963	292.339	289.259	285.033	229.743	262.569	156.570	114.529	175.025	132.864	111.474	108.322	106.890	126.490	129.904	134.225	188.465	157.239	45.699
60.000	265.624	303.440	238.647	286.848	307.236	310.602	312.416	293.103	289.474	286.179	230.125	261.256	153.586	116.439	177.627	131.957	111.402	108.155	106.866	125.989	129.665	133.103	188.609	158.552	41.819
61.000	268.083	301.602	236.451	288.089	308.167	310.912	312.464	292.912	289.020	286.490	229.790	260.062	151.772	118.277	180.396	130.930	110.901	107.797	106.627	125.869	129.713	132.363	188.537	159.746	36.495
62.000	269.540	299.572	234.565	288.662	307.904	310.936	312.392	293.270	289.378	287.230	230.029	259.011	149.838	120.474	182.903	129.999	110.614	107.678	106.484	125.535	129.689	131.790	188.465	160.772	36.630
63.000	271.258	297.185	232.751	288.925	308.215	311.199	312.583	293.795	289.522	287.827	229.838	258.152	148.215	122.431	184.789	129.522	110.471	107.582	106.460	125.129	129.737	131.121	188.346	162.061	41.999
64.000	273.264	295.013	231.676	289.904	308.525	311.270	312.918	294.058	289.164	288.686	229.934	257.197	146.448	124.795	186.579	128.853	110.184	107.415	106.412	124.914	129.665	130.596	188.418	162.992	45.338
65.000	274.601	292.912	230.339	290.405	308.668	311.652	312.751	294.177	289.211	288.901	229.695	255.836	145.063	127.254	188.322	128.209	109.850	107.320	106.150	124.652	129.641	130.119	188.298	164.210	42.586
66.000	275.890	290.429	229.408	291.026	309.050	311.724	313.204	294.392	289.378	289.426	229.934	255.311	143.774	129.450	189.564	127.851	109.707	107.105	106.102	124.341	129.593	129.593	188.298	164.974	37.938
67.000	276.893	288.805	228.716	291.575	309.241	311.843	313.061	294.463	289.665	289.665	229.862	253.855	142.676	131.527	190.662	127.278	109.420	107.105	105.959	124.317	129.784	129.498	188.298	165.833	36.630
68.000	278.230	286.394	228.048	291.861	309.265	311.915	313.252	294.654	289.474	290.142	230.172	253.210	141.673	133.676	191.736	126.824	109.325	106.723	105.935	123.959	129.665	129.188	188.227	166.335	40.555
69.000	279.184	284.222	227.904	292.315	309.432	312.321	313.419	294.869	289.187	290.119	230.316	252.351	140.623	135.060	192.452	126.490	109.373	106.723	105.887	123.792	129.426	128.758	188.036	167.170	44.751
70.000	280.163	282.789	227.522	292.768	309.623	312.273	313.347	295.227	289.426	290.644	230.172	251.778	139.644	137.090	192.786	126.251	109.229	106.651	105.696	123.744	129.546	128.328	188.131	168.125	43.127
71.000	281.214	280.975	227.666	292.959	309.957	312.488	313.419	295.227	289.474	291.050	229.838	250.942	138.713	139.191	193.288	125.774	109.038	106.675	105.744	123.768	129.617	127.946	188.251	168.746	39.247
72.000	282.025	278.755	227.594	293.485	309.814	312.178	313.276	295.395	289.307	291.312	230.554	250.202	137.806	141.124	193.622	125.463	108.895	106.556	105.744	123.410	129.593	127.731	187.964	169.486	36.901
73.000	282.670	276.702	227.618	293.509	310.148	312.440	313.467	295.442	289.617	291.264	230.363	249.987	137.090	143.058	193.598	125.201	108.943	106.556	105.553	123.171	129.546	127.349	187.964	170.011	39.337
74.000	283.291	275.174	227.498	294.010	310.101	312.560	313.801	295.418	289.617	292.005	229.957	249.223	136.326	144.872	193.694	124.699	108.752	106.508	105.768	123.386	129.665	127.158	188.203	170.584	44.075
75.000	283.840	273.168	227.880	294.082	310.005	312.321	313.610	295.705	289.450	292.172	230.077	248.340	135.681	146.687	193.837	124.580	108.513	106.293	105.505	123.195	129.570	126.872	187.988	171.133	43.533
76.000	284.795	271.330	227.809	294.583	310.029	312.512	313.610	296.087	289.928	292.530	230.507	248.125	135.132	148.716	193.550	124.365	108.656	106.317	105.505	122.837	129.355	126.705	188.060	171.849	39.698
77.000	284.938	269.492	228.310	294.511	310.029	312.321	313.538	295.800	289.617	292.959	230.196	247.457	134.416	150.626	193.407	124.246	108.561	106.221	105.505	122.766	129.546	126.538	187.964	172.184	37.307
78.000	285.487	267.725	228.716	294.631	310.459	312.416	313.514	296.326	289.760	292.983	230.101	247.170	133.891	152.106	193.240	123.840	108.346	106.221	105.434	122.837	129.426	126.299	187.845	172.709	38.796
79.000	286.370	265.863	228.716	295.108	310.315	312.488	313.777	296.015	289.713	292.816	230.125	246.669	133.318	154.088	192.954	123.601	108.298	106.150	105.577	122.766	129.570	126.132	188.036	173.282	43.353
80.000	286.991	264.025	229.217	295.800	310.435	312.846	313.849	296.135	289.426	293.198	230.387	246.096	132.625	155.854	192.667	123.458	108.203	106.078	105.386	122.622	129.450	125.941	187.916	173.783	43.984
81.000	287.731	262.210	229.170	295.442	310.674	313.013	313.777	296.373	289.569	293.604	230.125	245.666	132.148	157.358	191.951	123.219	108.131	106.030	105.457	122.575	129.593	125.678	187.988	174.261	40.691
82.000	287.874	260.778	229.361	295.777	310.721	312.798	313.896	296.708	289.569	293.795	230.316	245.332	131.647	159.340	191.832	123.267	108.227	106.054	105.481	122.503	129.593	125.416	188.036	174.356	37.352
83.000	288.280	259.179	229.766	295.371	310.435	312.703	313.873	296.540	289.641	293.700	230.244	244.759	131.265	160.796	191.545	123.052	108.083	105.983	105.266	122.145	129.546	125.344	187.725	174.977	38.344
84.000	289.020	257.603	230.053	295.920	310.697	312.774	313.801	296.779	289.665	293.676	230.196	244.067	131.002	162.252	191.211	122.742	107.940	105.983	105.290	122.288	129.522	125.201	187.892	175.454	42.586
85.000	289.068	255.788	230.220	295.991	310.793	313.013	314.040	296.588	289.617	294.034	230.554	243.947	130.429	163.709	190.757	122.622	108.036	106.030	105.266	122.073	129.379	125.057	187.940	175.789	44.661
86.000	289.665	254.619	230.721	296.135	310.841	312.894	314.064	296.922	289.164	294.249	230.292	243.804	130.047	165.237	190.423	122.551	107.869	105.887	105.314	122.049	129.379	124.843	187.845	176.218	41.503
87.000	289.999	253.234	231.247	295.896	310.841	312.870	313.896	296.851	289.665	294.201	230.530	243.446	129.593	166.764	189.993	122.431	108.012	105.887	105.290	121.906	129.355	124.652	187.845	176.409	38.435
88.000	290.691	251.420	231.581	296.135	310.626	313.085	314.135	296.803	289.331	294.559	230.172	242.777	129.355	167.982	189.587	122.193	107.869	105.863	105.243	121.858	129.379	124.437	187.845	176.815	38.254
89.000	290.835	250.298	231.867	296.731	310.865	313.156	313.992	296.970	289.450	294.750	230.292	242.682	129.020	169.367	189.253	122.240	107.821	105.720	105.099	121.835	129.450	124.532	187.869	177.006	41.638
