-----------------------------------------------------
BloodHound 307 VOC Analyser V2017.1
RoboScientific Ltd 
Espace North
Wisbech Road
Littleport
Cambridgeshire, UK
CB6 1RA 
-----------------------------------------------------
Date = 13/04/2022
Time = 12:21:47
Data is protected by RoboScientific Limited
-----------------------------------------------------
Name of the experiment = "08b_Day 33"
-----------------------------------------------------
Repeat No. = 3/4
-----------------------------------------------------
Experimental Time (in sec) and Flow Profile :
-----------------------------------------------------
Baseline = 2.00
Absorb = 4.00
Pause = 1.00
Desorb = 5.00
Flush = 20.00
Wait = 5.00
Higher Flow (V) = 4.00
Medium Flow (V) = 3.00
Low Flow (V) = 1.00
-----------------------------------------------------
Total Profile Time = 37 in sec
-----------------------------------------------------
Acquired data point per second = 4
--------------------------------------------------
Total data point stored  = 128
-----------------------------------------------------
Acquired sensor responses from 24 sensors
-----------------------------------------------------

Data Points	 Sen-1	 Sen-2	 Sen-3	 Sen-4	 Sen-5	 Sen-6	 Sen-7	 Sen-8	 Sen-9	 Sen-10	 Sen-11	 Sen-12	 Sen-13	 Sen-14	 Sen-15	 Sen-16	 Sen-17	 Sen-18	 Sen-19	 Sen-20	 Sen-21	 Sen-22	 Sen-23	 Sen-24	Humidity (%r.h.)
0.000	306.543	277.203	254.165	303.321	313.204	314.660	314.971	301.005	289.522	305.732	232.369	217.018	112.834	142.748	164.831	115.436	105.792	104.288	104.001	117.800	129.617	113.336	185.815	202.718	40.691
1.000	306.997	276.964	253.855	303.631	313.324	315.066	315.424	301.196	289.617	305.541	232.440	217.233	112.548	142.700	164.735	115.413	105.935	104.431	104.240	117.848	129.593	113.312	185.839	202.622	40.330
2.000	307.355	277.179	254.571	303.177	313.013	314.828	315.210	301.244	289.593	305.398	232.560	217.185	112.596	142.485	164.616	115.436	105.815	104.311	104.073	117.657	129.522	113.192	185.720	202.551	40.194
3.000	307.021	277.179	254.666	303.201	313.085	314.875	315.210	301.053	289.450	305.541	232.560	217.376	112.691	142.509	164.544	115.365	105.696	104.335	104.049	117.728	129.474	113.216	185.624	202.575	40.646
4.000	306.902	276.964	254.666	303.416	312.965	314.780	315.138	301.172	289.713	305.684	232.607	217.639	112.405	142.366	164.353	115.389	105.815	104.264	104.192	117.704	129.498	113.336	185.839	202.431	40.961
5.000	306.663	277.442	254.977	303.535	313.180	314.732	315.257	300.933	289.355	305.684	232.655	217.400	112.309	142.318	164.353	115.436	105.863	104.311	104.216	117.681	129.593	113.097	185.815	202.527	40.510
6.000	306.854	277.728	254.834	303.464	312.918	314.756	315.019	301.172	289.641	305.803	232.870	217.686	112.357	142.342	164.162	115.269	105.792	104.168	104.097	117.681	129.379	113.121	185.696	202.479	40.104
7.000	307.164	277.418	254.834	303.201	313.156	314.947	315.257	301.172	289.665	305.947	232.345	217.543	112.524	142.008	163.923	115.317	105.744	104.383	104.168	117.752	129.498	113.073	185.744	202.407	40.510
8.000	307.188	278.253	255.120	303.464	312.894	314.637	315.233	301.196	289.569	305.923	232.798	217.734	112.405	142.055	164.019	115.246	105.792	104.240	104.168	117.776	129.450	112.978	185.744	202.360	40.961
9.000	307.427	277.561	255.239	303.177	313.013	314.923	315.281	301.363	289.307	305.708	232.488	217.830	112.452	141.960	163.732	115.150	105.863	104.311	104.168	117.776	129.570	113.121	185.648	202.360	40.600
10.000	304.896	275.365	254.953	303.368	313.228	314.923	315.042	300.623	289.665	305.230	231.987	259.704	113.527	143.727	164.019	115.389	105.792	104.264	104.097	117.800	129.235	113.622	186.054	159.388	40.239
11.000	266.078	255.311	250.775	301.005	312.249	314.087	314.923	298.832	290.071	289.426	230.459	293.676	151.629	164.305	167.934	116.988	106.197	104.693	104.264	119.758	128.686	128.376	187.582	126.896	38.705
12.000	226.711	289.808	240.796	298.045	311.342	313.133	314.302	295.538	290.668	250.321	229.193	309.313	192.428	130.453	178.940	120.713	107.081	105.290	104.646	123.171	128.233	169.462	189.038	111.784	32.524
13.000	250.107	307.140	229.480	292.816	310.697	312.631	313.992	291.002	290.572	223.917	228.453	317.788	169.200	111.879	191.927	125.702	107.797	106.269	105.123	127.707	128.280	194.816	189.898	103.619	44.526
14.000	269.874	316.236	237.549	285.965	309.313	311.270	313.300	286.609	290.119	232.536	227.570	321.822	148.215	102.354	179.417	132.267	109.373	107.463	105.768	132.005	128.591	184.407	190.614	98.439	52.963
15.000	285.965	322.777	249.963	277.442	308.047	310.172	312.607	281.906	289.498	247.982	227.021	325.475	131.623	96.720	165.929	140.886	110.901	108.824	106.532	136.708	129.331	169.772	191.378	95.383	39.743
16.000	299.119	326.908	260.277	268.561	305.756	308.095	311.247	276.320	288.543	260.515	226.544	327.122	119.877	92.852	154.541	150.459	112.787	110.184	107.511	141.888	130.047	158.409	191.832	93.592	28.869
17.000	308.740	329.438	268.036	259.537	303.989	306.448	309.981	271.378	287.492	271.115	226.281	328.722	110.256	90.369	144.371	159.602	114.935	112.094	108.728	147.570	130.954	147.140	192.619	92.232	39.427
18.000	314.708	330.321	274.816	250.298	301.029	304.132	308.573	265.099	286.752	279.948	225.684	329.677	103.357	88.961	136.946	168.603	117.561	114.267	110.614	153.944	132.243	137.854	192.667	91.611	54.497
19.000	319.889	332.136	279.877	241.751	297.949	301.602	306.090	258.534	285.606	286.896	225.016	330.870	98.916	87.934	130.238	176.696	120.426	116.559	112.667	160.151	133.151	130.429	192.786	89.844	44.932
20.000	323.207	332.709	284.890	233.300	295.036	298.976	303.822	251.730	284.150	292.983	225.159	331.061	96.051	86.717	126.705	185.051	123.649	119.376	115.055	166.884	134.392	125.368	192.977	89.796	29.050
21.000	326.287	332.661	288.591	226.567	291.766	295.848	300.838	245.762	283.362	297.591	225.230	331.229	92.613	86.287	122.002	192.763	127.421	122.981	118.445	173.855	135.371	120.832	193.407	89.152	34.915
22.000	327.385	333.497	291.121	222.533	287.779	292.530	297.018	239.650	282.049	300.718	224.849	332.184	91.611	84.735	119.543	197.275	131.312	126.108	122.097	180.516	136.946	117.012	193.789	89.009	52.151
23.000	329.534	334.404	293.652	224.514	283.983	289.044	293.031	234.064	280.498	304.228	225.469	332.422	89.701	85.117	117.609	193.192	135.490	129.737	126.132	185.720	138.092	114.076	193.622	88.125	49.218
24.000	330.680	334.308	295.920	230.578	278.874	285.033	288.280	229.241	279.161	307.856	225.374	332.685	88.698	85.141	115.365	187.367	139.978	133.318	130.620	190.972	139.286	111.187	193.694	88.197	31.847
25.000	330.703	334.523	297.400	235.615	274.577	281.429	283.243	225.899	278.230	309.193	224.896	333.258	87.385	84.711	114.935	183.046	144.849	137.137	135.968	193.980	140.886	109.635	193.121	87.815	30.855
26.000	331.396	335.072	298.785	235.926	271.282	280.211	279.805	225.708	277.680	308.668	225.063	333.258	88.483	85.213	113.980	182.569	148.095	138.451	139.405	194.147	141.578	109.898	193.885	87.696	48.587
27.000	330.966	335.478	298.999	235.639	270.662	280.927	279.375	226.042	277.633	308.191	225.039	333.210	88.101	84.138	114.243	183.022	149.194	138.116	140.026	193.909	141.291	110.590	193.789	87.767	53.279
28.000	330.680	335.239	299.023	234.732	269.898	280.784	278.826	226.257	278.206	308.215	225.039	332.422	87.958	84.855	114.314	183.547	149.552	137.973	140.193	193.455	140.957	110.781	193.622	87.170	37.081
29.000	331.515	334.452	299.262	234.207	270.136	281.190	278.850	227.045	278.301	306.997	224.944	332.685	88.292	85.213	113.861	184.598	149.480	137.687	140.337	193.121	140.886	111.092	193.694	87.170	28.148
30.000	332.231	335.072	299.286	237.263	268.800	279.972	277.489	226.066	277.728	309.002	225.254	333.473	87.194	84.950	114.147	181.447	150.530	139.071	141.841	193.741	141.172	109.635	193.741	88.340	43.127
31.000	330.870	335.192	300.885	241.011	265.529	277.060	274.076	225.111	276.917	308.811	224.992	333.162	88.245	84.043	113.765	176.863	154.111	142.079	145.374	194.338	141.912	109.778	193.622	87.648	55.039
32.000	329.223	334.857	301.124	242.467	262.473	275.747	272.261	228.000	278.588	305.063	224.872	330.918	90.704	84.902	112.070	175.884	156.785	143.297	146.973	191.832	140.599	113.909	193.861	89.128	41.638
33.000	326.335	334.093	302.270	242.085	262.187	276.224	274.099	234.398	280.330	298.188	225.350	329.629	93.688	85.595	112.452	176.529	156.332	141.506	144.944	185.410	138.522	121.667	192.834	90.202	28.102
34.000	323.088	333.473	301.936	239.316	264.837	279.041	277.418	242.061	282.073	288.089	226.114	327.098	96.624	85.619	113.216	179.155	154.255	139.238	141.220	177.221	136.517	130.978	192.190	92.184	37.848
35.000	318.934	333.497	300.957	234.804	267.654	281.667	281.930	249.438	284.079	275.962	227.116	323.732	101.232	86.359	113.145	183.213	151.533	137.090	137.830	169.749	134.798	143.154	191.521	95.049	52.963
36.000	313.419	332.733	300.503	229.408	271.521	284.317	285.272	256.314	285.463	262.449	227.737	321.154	105.815	87.433	114.052	188.656	147.833	134.273	133.604	162.992	133.604	157.215	190.781	98.176	46.331
37.000	306.591	331.921	299.668	224.037	275.007	287.469	289.426	261.876	286.442	246.191	228.000	316.761	113.479	88.412	114.577	194.290	143.846	131.456	129.737	156.881	132.339	172.828	190.280	102.521	31.216
38.000	297.066	330.035	298.570	220.504	279.137	289.928	292.554	267.033	287.301	230.172	228.883	311.939	121.620	89.128	115.795	198.731	139.811	128.639	126.108	151.605	131.694	188.131	189.444	107.415	33.923
39.000	285.726	329.366	296.779	224.777	282.837	292.625	296.015	271.545	287.755	220.265	228.979	307.785	133.986	90.226	116.630	194.100	136.374	126.371	123.219	147.618	131.193	199.137	189.325	112.190	48.541
40.000	271.473	327.815	295.299	231.605	286.275	294.798	298.952	274.601	288.376	233.085	229.241	302.819	149.098	92.136	118.874	187.415	132.888	124.055	120.068	144.037	130.763	186.293	189.062	117.155	48.767
41.000	254.690	325.976	293.198	238.409	288.949	296.803	301.148	277.275	288.185	243.971	229.743	297.448	166.024	93.330	120.498	180.062	129.761	121.787	117.561	140.814	130.596	175.096	188.776	122.336	36.043
42.000	237.645	324.902	290.262	245.284	291.790	298.928	303.416	279.996	288.543	253.759	229.456	292.816	181.160	95.287	123.100	173.115	126.776	119.471	115.508	138.427	130.357	164.664	188.585	126.896	32.930
43.000	223.989	322.300	287.970	251.945	294.678	301.363	305.517	282.288	288.424	261.852	230.077	287.731	194.553	97.006	126.848	167.003	124.628	117.442	113.741	136.183	130.166	157.120	188.227	131.479	43.804
44.000	220.909	320.653	284.055	257.961	296.397	303.153	306.687	284.150	288.710	268.155	230.316	283.434	198.874	98.892	129.426	161.011	122.455	115.675	112.500	134.511	130.119	150.769	187.869	136.588	48.541
45.000	228.143	318.504	280.879	262.879	298.474	304.944	307.904	285.606	289.164	273.240	230.268	279.161	191.187	100.754	133.222	155.544	120.092	113.837	111.211	132.816	130.095	146.066	187.701	141.100	40.285
46.000	235.233	315.830	277.203	267.105	300.241	306.424	308.907	287.087	288.782	277.060	230.483	274.744	183.953	103.929	136.875	151.223	118.540	112.596	110.232	131.575	130.095	141.841	187.725	144.992	34.013
47.000	241.775	313.013	272.786	271.139	301.602	307.475	309.766	288.280	288.782	280.187	230.936	271.235	177.125	106.460	141.220	147.284	117.084	111.187	109.301	130.119	130.023	138.641	187.487	148.597	40.330
48.000	248.268	310.196	268.036	274.601	302.748	308.549	310.339	289.402	289.092	283.004	230.793	267.606	171.563	109.468	146.496	143.989	115.723	110.328	108.704	129.331	129.904	136.087	187.463	151.820	46.962
49.000	254.284	307.116	263.619	277.848	304.252	309.217	311.008	290.477	289.307	285.415	231.032	265.338	165.332	113.121	151.103	140.981	114.625	109.564	108.060	128.089	129.856	133.413	187.272	154.899	42.135
50.000	259.226	302.652	258.486	280.617	305.016	309.933	311.294	291.050	288.949	287.755	230.698	261.232	160.581	117.346	156.308	137.925	113.598	108.680	107.558	127.445	129.904	131.360	187.319	158.552	36.089
51.000	263.547	298.498	253.139	283.028	306.042	310.674	312.106	292.554	289.140	289.235	231.270	257.913	156.093	121.118	161.775	135.108	112.619	108.179	107.248	126.585	129.856	129.570	187.152	161.417	38.480
52.000	267.152	294.249	248.197	285.583	306.758	311.247	312.178	292.721	289.211	290.954	231.223	255.096	152.464	125.869	167.624	133.365	112.070	107.678	106.794	125.917	129.832	128.137	187.128	164.640	45.203
53.000	270.089	289.832	243.350	287.301	307.212	311.318	312.536	293.628	288.996	291.694	231.509	252.398	149.265	129.880	172.661	131.288	111.402	107.248	106.532	125.487	130.023	127.087	187.009	167.218	43.443
54.000	273.335	285.893	238.910	288.591	307.880	312.010	312.870	294.034	289.044	292.745	231.223	249.820	146.496	133.652	177.412	129.761	110.662	106.842	106.365	124.938	129.928	126.132	187.033	169.486	38.390
55.000	275.102	282.073	235.496	289.737	308.286	312.058	313.085	294.392	289.307	293.891	231.509	247.958	144.419	137.710	181.781	128.615	110.256	106.556	106.221	124.389	129.856	125.368	186.985	171.826	37.938
56.000	277.418	278.015	232.679	290.930	309.050	312.703	313.013	294.654	289.140	294.392	231.533	245.953	142.509	141.721	185.171	127.516	109.874	106.603	106.078	124.103	129.928	124.508	186.770	173.950	43.217
57.000	279.089	273.956	229.743	291.814	309.002	312.345	313.371	295.156	289.283	295.060	231.461	244.138	140.408	145.493	188.274	126.633	109.492	106.293	105.744	123.577	129.856	123.959	186.770	175.526	43.984
58.000	280.879	269.874	228.000	292.888	309.337	312.583	313.562	295.681	289.331	295.800	231.414	242.754	139.167	149.719	190.590	125.821	109.110	105.983	105.648	123.315	129.975	123.386	186.818	177.364	39.653
59.000	281.667	266.197	226.520	293.461	309.671	312.679	313.371	295.633	289.259	295.896	231.461	241.154	137.543	153.944	192.500	125.057	109.158	105.959	105.553	122.981	129.761	122.861	186.723	178.725	38.164
60.000	282.980	261.590	226.162	294.177	309.790	312.942	313.395	296.039	288.996	296.421	231.461	239.435	136.350	157.549	193.885	124.556	108.728	105.768	105.481	122.718	129.832	122.431	186.532	179.871	41.413
61.000	284.508	257.794	225.708	294.559	309.910	313.085	313.682	296.445	289.378	296.994	231.509	238.074	135.084	161.966	194.625	123.912	108.633	105.863	105.410	122.479	129.689	122.026	186.746	181.518	44.075
62.000	285.869	253.831	225.565	295.442	310.435	313.300	313.849	296.493	289.092	297.161	231.557	237.119	134.106	165.738	195.007	123.219	108.322	105.601	105.290	122.264	129.832	121.811	186.555	182.258	40.871
63.000	286.323	249.677	226.376	295.944	310.244	313.300	313.825	296.684	289.116	297.472	232.058	235.878	133.031	170.035	194.768	123.004	108.227	105.457	105.171	121.906	129.761	121.548	186.675	183.524	38.705
64.000	287.755	245.404	226.591	295.944	310.674	313.467	314.111	297.161	289.140	297.663	231.843	234.875	131.694	174.285	194.577	122.479	108.131	105.457	105.099	121.763	129.665	120.975	186.388	185.028	40.014
65.000	288.424	240.939	227.260	296.636	310.554	313.300	313.968	297.328	289.211	298.188	231.843	233.538	130.739	178.439	193.598	122.026	107.869	105.386	105.052	121.500	129.689	120.713	186.412	185.983	43.443
66.000	289.737	237.072	228.310	296.755	310.721	313.514	314.135	297.472	288.996	298.546	231.533	232.631	130.023	182.282	192.643	121.667	107.892	105.314	105.028	121.453	129.737	120.402	186.412	187.152	41.819
67.000	290.524	233.682	228.812	297.090	311.103	313.514	314.374	297.782	289.402	298.689	231.724	231.461	129.092	186.150	191.617	121.476	107.773	105.362	105.004	121.095	129.713	119.996	186.388	187.892	39.292
68.000	291.718	230.101	229.766	297.710	311.175	313.753	314.278	297.663	289.211	298.904	232.034	230.578	128.209	189.373	190.518	120.951	107.558	105.099	104.980	121.071	129.737	119.758	186.341	188.823	39.021
69.000	291.551	226.711	230.530	297.758	311.151	313.634	314.111	297.925	289.355	299.143	231.820	230.029	127.994	192.739	189.564	120.593	107.558	105.147	104.837	120.880	129.808	119.734	186.245	189.635	42.360
70.000	292.291	223.774	231.581	297.901	311.223	313.825	314.255	298.188	289.092	299.429	231.939	229.408	127.182	195.651	188.704	120.402	107.511	105.171	104.861	120.760	129.522	119.376	186.365	190.113	42.405
71.000	293.103	221.435	232.273	298.570	311.342	313.634	314.493	298.045	289.020	299.238	232.011	229.026	126.442	198.158	187.606	120.211	107.415	105.052	104.765	120.689	129.832	119.376	186.245	190.853	39.743
72.000	293.771	219.716	232.870	298.808	311.557	313.586	314.183	298.307	289.283	299.931	232.321	228.430	126.036	200.521	186.842	119.901	107.415	105.075	104.717	120.354	129.689	119.041	186.388	191.521	39.157
73.000	293.914	218.856	234.111	298.665	311.557	313.920	314.278	298.522	289.426	300.145	231.796	227.618	125.320	201.166	186.006	119.662	107.343	105.028	104.693	120.450	129.737	118.946	186.269	192.023	40.646
74.000	294.487	220.050	234.517	298.928	311.557	313.753	314.469	298.641	289.283	300.336	231.748	226.735	124.986	200.450	185.147	119.567	107.224	104.980	104.765	120.307	129.761	118.803	186.269	192.572	42.811
75.000	295.299	222.079	235.424	299.167	311.819	314.207	314.517	298.665	289.020	299.883	231.820	226.424	124.532	198.230	184.455	119.447	107.081	104.956	104.670	120.140	129.689	118.683	186.150	193.168	41.322
76.000	295.657	224.347	235.592	299.262	311.676	314.040	314.446	299.023	289.498	300.289	232.130	225.923	124.055	195.842	183.691	119.376	107.248	104.908	104.765	119.972	129.665	118.492	186.293	193.765	39.427
77.000	296.230	227.116	236.642	299.668	311.963	313.849	314.565	298.785	289.164	300.623	232.034	225.421	123.458	192.930	182.998	119.137	107.081	104.765	104.574	119.877	129.737	118.254	186.293	194.219	39.202
78.000	296.373	229.599	237.143	299.501	311.485	313.992	314.613	298.785	289.259	300.694	232.297	224.681	123.148	190.566	182.258	118.994	107.009	104.932	104.670	119.949	129.617	118.230	186.054	194.792	41.458
79.000	296.684	232.011	237.860	299.811	311.939	314.255	314.565	298.880	289.378	300.742	231.748	224.467	123.028	187.749	181.614	118.755	106.890	104.837	104.717	119.853	129.641	118.039	186.102	195.031	42.089
80.000	297.328	234.541	238.289	299.811	311.915	313.992	314.398	298.999	289.020	300.838	232.106	224.180	122.503	185.601	181.208	118.779	106.961	104.837	104.550	119.662	129.617	117.872	185.959	195.580	40.149
81.000	297.352	236.809	238.934	299.620	311.557	313.992	314.684	299.071	289.426	301.148	231.987	223.583	122.145	183.165	180.420	118.659	106.842	104.789	104.407	119.567	129.784	117.800	186.174	195.747	39.337
82.000	297.710	239.005	239.746	299.978	312.082	314.493	314.684	299.238	289.164	301.005	231.891	223.106	121.739	180.826	179.943	118.468	106.699	104.622	104.550	119.590	129.689	117.681	186.054	196.200	40.736
83.000	298.092	240.796	240.151	300.241	311.867	314.135	314.517	299.286	289.235	301.267	231.867	223.177	121.596	179.083	179.680	118.325	106.818	104.717	104.526	119.543	129.689	117.633	186.102	196.582	42.135
84.000	298.546	242.801	240.366	300.432	312.369	314.159	314.374	299.143	289.164	301.506	232.178	222.843	121.309	177.316	179.035	118.134	106.603	104.717	104.502	119.447	129.617	117.490	186.150	196.893	40.871
85.000	298.737	244.281	240.844	300.456	312.034	314.231	314.780	299.381	289.259	301.697	232.034	222.318	120.927	175.287	178.486	118.134	106.699	104.670	104.526	119.423	129.665	117.537	186.054	197.203	39.292
86.000	299.023	246.167	241.297	300.862	312.082	314.207	314.565	299.286	289.211	301.626	231.915	222.294	120.689	173.712	178.128	117.943	106.723	104.741	104.479	119.352	129.761	117.275	186.030	197.203	40.104
87.000	299.143	247.791	241.942	300.647	311.843	314.231	314.875	299.811	289.331	301.745	231.963	222.103	120.474	172.160	177.722	118.063	106.651	104.550	104.407	119.304	129.498	117.203	186.054	197.704	41.548
88.000	299.071	248.985	242.181	300.814	312.273	314.278	314.660	299.931	289.164	301.840	232.130	221.649	120.116	170.799	177.412	117.848	106.532	104.526	104.550	119.232	129.713	117.275	186.006	197.728	41.277
89.000	299.190	250.584	242.372	300.671	311.772	314.231	314.660	299.381	289.426	301.864	232.225	221.411	119.972	169.390	176.911	117.991	106.579	104.717	104.574	119.232	129.593	117.084	186.221	198.134	39.653
