-----------------------------------------------------
BloodHound 307 VOC Analyser V2017.1
RoboScientific Ltd 
Espace North
Wisbech Road
Littleport
Cambridgeshire, UK
CB6 1RA 
-----------------------------------------------------
Date = 06/04/2022
Time = 12:20:58
Data is protected by RoboScientific Limited
-----------------------------------------------------
Name of the experiment = "32b_Day 37"
-----------------------------------------------------
Repeat No. = 3/4
-----------------------------------------------------
Experimental Time (in sec) and Flow Profile :
-----------------------------------------------------
Baseline = 2.00
Absorb = 4.00
Pause = 1.00
Desorb = 5.00
Flush = 20.00
Wait = 5.00
Higher Flow (V) = 4.00
Medium Flow (V) = 3.00
Low Flow (V) = 1.00
-----------------------------------------------------
Total Profile Time = 37 in sec
-----------------------------------------------------
Acquired data point per second = 4
--------------------------------------------------
Total data point stored  = 128
-----------------------------------------------------
Acquired sensor responses from 24 sensors
-----------------------------------------------------

Data Points	 Sen-1	 Sen-2	 Sen-3	 Sen-4	 Sen-5	 Sen-6	 Sen-7	 Sen-8	 Sen-9	 Sen-10	 Sen-11	 Sen-12	 Sen-13	 Sen-14	 Sen-15	 Sen-16	 Sen-17	 Sen-18	 Sen-19	 Sen-20	 Sen-21	 Sen-22	 Sen-23	 Sen-24	Humidity (%r.h.)
0.000	312.870	307.522	293.031	305.183	314.851	315.568	315.711	296.994	286.156	311.079	229.504	274.983	106.484	112.142	126.227	113.550	104.097	103.595	103.643	121.763	132.864	107.701	188.895	144.395	34.374
1.000	312.870	307.498	293.079	305.039	314.971	315.472	315.639	296.970	286.466	311.438	229.480	274.696	106.603	111.927	126.227	113.503	104.025	103.524	103.452	121.739	132.816	107.940	188.991	144.347	38.796
2.000	313.204	307.260	293.103	305.350	314.756	315.663	315.854	297.066	286.156	311.414	229.647	275.078	106.317	112.142	126.036	113.455	104.144	103.548	103.500	121.691	132.769	107.654	188.991	144.180	46.421
3.000	313.109	307.260	293.055	305.111	314.613	315.520	315.902	297.137	286.299	311.199	229.241	275.078	106.627	112.023	125.941	113.574	104.144	103.548	103.595	121.787	132.912	107.725	188.919	144.132	45.428
4.000	313.156	307.331	293.007	305.135	314.804	315.663	315.854	296.994	286.275	311.342	229.599	275.102	106.556	112.118	125.989	113.718	104.144	103.548	103.595	121.715	132.792	107.606	188.919	144.037	37.893
5.000	313.156	307.140	293.580	305.207	314.684	315.591	315.878	297.376	286.323	311.032	229.743	275.293	106.293	112.118	125.869	113.479	104.073	103.428	103.524	121.787	132.769	107.701	188.776	143.989	34.600
6.000	313.252	307.833	293.294	305.230	314.517	315.353	315.830	297.424	286.275	311.270	229.384	275.269	106.508	112.046	125.798	113.431	104.192	103.619	103.404	121.811	132.769	107.606	188.991	143.774	41.007
7.000	312.751	307.475	293.198	305.183	314.851	315.520	315.687	296.994	286.132	311.605	229.504	275.580	106.197	112.023	125.726	113.336	104.073	103.428	103.524	121.882	132.888	107.701	188.967	143.583	47.459
8.000	313.347	307.212	293.365	305.350	314.923	315.257	315.711	297.281	286.299	311.390	229.480	275.699	106.412	111.903	125.750	113.455	104.073	103.643	103.500	121.715	132.888	107.773	188.871	143.464	43.894
9.000	313.180	307.379	293.580	304.896	314.660	315.591	315.806	297.281	286.227	311.509	229.623	275.794	106.317	112.023	125.678	113.598	104.073	103.571	103.619	121.763	132.721	107.534	188.967	143.416	36.043
10.000	311.891	305.398	293.150	305.039	314.732	315.926	315.854	296.899	286.561	310.745	228.859	273.049	107.129	113.216	125.869	113.598	104.049	103.739	103.571	121.811	132.315	108.012	189.182	145.326	35.682
11.000	294.750	255.072	290.214	303.798	314.517	315.186	315.400	295.705	287.516	304.490	227.140	278.588	123.625	161.393	128.233	114.720	104.264	103.762	103.643	123.219	131.360	113.861	191.378	140.026	40.014
12.000	263.333	278.564	283.458	300.408	314.469	315.233	315.639	291.551	288.233	285.201	225.111	300.169	157.024	140.265	135.705	118.206	104.741	104.240	103.715	127.421	130.811	133.938	193.264	119.495	33.652
13.000	235.806	301.530	273.789	294.869	313.514	314.231	315.496	286.370	288.352	268.465	223.703	311.724	184.383	117.275	145.541	123.912	105.219	104.956	104.049	132.291	130.716	150.769	194.840	108.036	39.743
14.000	266.818	312.703	263.738	286.728	312.655	313.109	314.804	281.572	287.779	249.725	222.199	318.265	151.581	105.744	155.806	132.411	105.911	105.672	104.455	137.663	130.954	169.940	195.866	100.898	52.061
15.000	289.546	319.913	253.330	277.298	311.891	311.987	314.493	275.580	287.110	226.854	221.554	322.276	128.042	98.749	165.762	141.029	106.627	106.842	104.693	142.939	131.670	191.497	196.940	96.505	46.692
16.000	305.016	324.353	244.425	267.224	310.769	310.244	313.491	269.158	286.203	240.342	220.623	326.621	113.837	94.762	176.027	151.223	107.701	108.394	105.290	149.576	132.625	179.131	197.537	94.690	32.795
17.000	315.019	326.884	238.838	257.985	309.456	308.167	312.870	262.354	284.962	261.828	220.384	327.791	103.977	91.730	183.500	161.274	108.656	110.399	106.054	156.738	133.604	157.979	198.015	92.709	30.313
18.000	321.106	329.175	240.008	247.552	308.358	305.589	311.676	254.857	283.983	276.463	219.740	328.722	98.510	89.343	179.823	171.491	110.519	113.192	107.463	164.425	134.750	142.246	198.588	90.656	44.526
19.000	324.258	330.512	246.287	237.597	306.782	302.461	310.101	246.908	282.598	286.442	219.668	330.799	93.879	88.865	169.558	180.969	112.046	115.986	108.967	171.658	136.039	131.169	199.041	89.796	54.497
20.000	327.719	332.398	252.971	228.430	304.610	298.976	308.024	239.793	282.264	294.631	219.644	331.443	91.420	87.863	159.531	190.375	113.789	119.304	110.781	179.895	137.114	123.195	199.185	89.367	42.856
21.000	329.916	332.780	259.298	221.315	302.915	295.156	305.541	232.894	280.044	300.814	219.429	331.587	89.558	86.597	151.342	197.633	116.033	123.315	113.407	186.842	138.522	117.370	199.662	89.200	28.734
22.000	331.133	333.091	265.529	223.726	300.408	290.906	302.413	226.639	278.731	305.374	219.310	331.754	87.672	86.144	144.944	195.078	118.612	127.827	116.487	193.049	140.122	112.978	199.590	88.937	33.697
23.000	331.539	333.855	269.993	230.578	297.543	286.370	298.785	223.631	277.251	308.811	219.286	332.470	86.502	85.690	139.644	187.845	121.572	132.602	120.402	195.627	141.817	109.325	199.423	88.794	49.669
24.000	332.995	333.497	274.028	237.788	294.272	281.381	294.416	226.018	275.221	312.392	219.095	332.780	86.001	85.046	135.586	180.826	124.389	137.066	124.461	192.691	143.464	106.293	199.519	87.314	53.098
25.000	333.879	334.571	277.370	242.825	290.739	276.272	289.951	229.098	273.383	313.610	219.095	333.401	85.977	85.022	132.387	175.741	128.304	142.151	129.044	189.635	145.087	104.359	199.614	86.717	37.848
26.000	332.947	334.499	278.993	242.968	288.662	274.696	287.110	228.907	273.264	314.183	219.095	333.592	85.762	85.069	130.930	175.956	130.310	143.798	132.029	189.850	145.684	104.837	199.877	87.815	28.102
27.000	333.497	334.810	279.638	241.632	288.352	275.007	286.514	228.095	273.574	313.777	219.405	332.661	85.451	85.117	130.668	176.314	130.739	143.512	132.792	190.447	145.589	105.338	199.519	87.672	38.390
28.000	333.377	334.786	280.259	240.486	288.614	275.556	286.156	227.284	273.479	313.658	218.880	333.115	85.356	84.855	129.904	177.746	130.859	143.034	132.983	191.044	145.087	105.434	199.949	87.839	53.459
29.000	333.497	335.215	280.665	239.769	288.400	276.009	286.156	226.711	274.314	313.204	219.000	332.279	85.905	84.664	130.429	178.844	130.811	142.413	133.031	191.927	144.896	105.792	199.925	87.743	50.211
30.000	334.213	335.096	281.596	243.374	287.325	274.076	284.675	228.979	274.147	313.825	218.689	332.947	84.497	84.998	129.713	174.858	131.742	144.132	134.535	189.134	145.398	104.574	199.734	87.099	34.103
31.000	333.497	335.359	282.837	248.054	284.699	270.638	281.357	230.125	272.977	314.302	218.832	333.115	85.977	84.950	127.946	170.465	134.726	148.143	137.854	188.609	146.233	104.288	199.758	87.910	28.599
32.000	332.184	334.810	283.768	249.414	283.124	269.468	279.925	226.758	274.625	309.766	219.023	332.160	87.600	85.117	127.660	169.390	136.564	149.074	139.071	191.259	144.037	108.513	199.781	89.534	42.450
33.000	330.417	334.237	284.365	247.122	283.410	271.999	282.598	227.164	277.633	302.795	219.549	329.486	90.131	85.714	127.111	171.038	135.705	146.687	136.923	193.073	141.148	116.487	199.065	90.584	54.362
34.000	326.358	333.759	284.461	242.873	285.678	275.508	286.012	235.902	280.283	291.694	220.599	327.457	93.139	86.812	127.206	175.526	133.389	143.225	133.031	184.025	138.427	127.684	197.991	92.876	45.834
35.000	322.539	332.685	284.126	235.926	288.614	279.304	289.784	244.425	282.407	276.344	221.840	323.326	97.317	87.290	128.328	182.402	130.357	139.023	129.044	174.738	136.397	143.321	196.964	95.789	31.125
36.000	315.782	331.420	282.288	227.833	291.742	283.577	293.747	252.494	283.864	258.176	222.079	318.862	102.784	88.770	129.856	190.113	127.015	134.941	125.320	166.502	134.846	161.106	195.938	101.017	32.163
37.000	307.355	329.223	280.951	219.907	294.177	287.373	297.424	258.534	285.439	236.475	222.891	313.180	111.760	90.131	132.363	198.182	124.652	131.193	121.763	160.390	133.843	181.781	195.269	106.365	45.879
38.000	294.010	328.077	277.991	226.209	296.994	291.241	300.694	264.216	285.320	224.538	223.917	306.687	125.392	92.017	134.249	192.691	122.026	127.707	118.564	154.828	133.198	195.651	194.720	112.405	51.610
39.000	275.365	325.499	275.150	236.260	299.716	294.989	303.416	268.370	286.227	242.252	224.037	300.551	145.565	94.547	137.305	182.640	119.209	123.912	115.771	150.650	132.649	177.364	194.028	119.423	41.413
40.000	250.966	322.348	271.235	245.666	301.554	297.949	305.445	271.354	286.060	255.407	224.944	293.676	169.319	97.245	141.745	172.685	116.964	120.402	113.288	146.973	132.458	162.801	193.503	126.776	32.344
41.000	230.292	319.220	266.412	254.117	303.297	301.029	307.403	274.314	286.514	266.794	225.111	287.158	188.513	100.468	146.185	163.995	115.198	117.561	111.402	143.894	132.267	152.273	193.025	132.816	36.720
42.000	222.986	314.756	261.399	262.043	305.374	303.893	309.193	276.511	286.585	274.792	225.684	279.710	197.490	104.861	151.844	156.714	113.622	114.911	109.922	141.554	132.196	144.562	192.810	139.477	46.421
43.000	237.907	309.647	255.741	268.394	306.376	305.875	310.172	278.421	286.490	280.521	225.660	273.574	182.043	110.184	158.791	150.339	112.428	112.787	108.824	139.573	132.291	138.069	192.452	145.899	46.511
44.000	251.969	302.437	249.868	273.908	307.761	307.618	311.175	280.235	286.776	285.726	226.424	266.985	167.767	117.060	165.499	144.896	111.092	110.781	107.701	137.878	132.220	133.771	192.285	152.202	39.833
45.000	262.951	294.583	243.494	278.206	308.525	309.361	312.106	281.787	286.538	288.877	226.114	260.635	156.069	125.559	172.375	140.313	110.184	109.420	106.914	136.469	132.220	130.071	191.832	158.504	35.682
46.000	272.070	284.890	237.907	281.691	309.528	310.554	312.655	283.171	286.776	291.360	226.687	254.762	146.854	134.344	179.083	136.612	109.277	108.179	106.412	135.156	132.363	127.182	191.760	164.138	39.788
47.000	279.375	275.054	233.252	285.010	310.339	311.700	313.467	284.246	286.466	293.843	226.758	248.722	140.050	144.371	185.171	133.628	108.442	107.248	105.959	134.082	132.482	125.392	191.569	170.417	44.887
48.000	284.842	264.932	230.698	287.421	311.270	312.297	313.371	285.177	286.370	295.609	227.164	243.494	134.917	154.995	189.301	131.050	107.725	106.556	105.601	133.270	132.291	123.339	191.450	175.789	43.217
49.000	288.877	253.735	231.485	289.593	311.032	312.512	313.920	286.036	286.514	297.209	227.093	238.170	130.668	165.786	189.205	128.997	107.367	106.126	105.195	132.052	132.387	121.882	191.282	180.563	39.608
50.000	291.742	240.700	234.923	291.575	311.796	313.133	314.446	287.349	286.514	298.546	227.164	233.037	127.540	178.462	185.433	126.681	106.914	105.481	104.813	131.074	132.339	120.354	191.115	185.792	38.976
51.000	294.583	227.498	239.244	293.365	312.321	313.873	314.398	288.567	286.442	299.549	227.570	228.310	124.699	190.996	180.850	125.153	106.460	105.099	104.789	130.071	132.506	119.209	190.924	189.946	40.826
52.000	296.708	228.215	243.685	294.726	312.631	314.111	314.732	289.378	286.538	300.551	227.475	224.801	122.957	192.333	176.147	123.864	106.150	104.861	104.502	129.068	132.530	118.349	190.948	193.789	42.225
53.000	298.259	240.151	247.648	295.920	312.798	314.064	314.732	290.238	286.585	301.339	227.546	222.031	121.238	180.110	171.873	122.861	105.959	104.550	104.502	128.519	132.554	117.537	190.829	196.749	40.961
54.000	299.334	250.441	251.467	296.731	313.013	314.469	314.899	290.787	286.633	302.222	227.594	219.907	119.829	168.674	167.958	121.954	105.672	104.550	104.407	127.994	132.578	116.797	190.709	199.089	39.924
55.000	300.838	260.062	254.452	297.400	313.395	314.732	314.995	291.336	286.323	302.485	227.713	219.119	118.731	159.029	164.711	121.071	105.529	104.502	104.335	127.445	132.578	116.177	190.542	200.617	40.330
56.000	301.649	267.725	257.484	298.355	313.753	314.756	314.780	291.814	286.251	303.177	227.546	219.214	117.490	151.581	161.536	120.235	105.434	104.288	104.144	126.896	132.625	115.604	190.590	200.760	40.600
57.000	302.270	272.977	259.966	299.023	313.562	314.708	314.899	292.601	286.299	303.774	228.071	220.360	116.654	146.329	158.910	119.734	105.434	104.311	104.097	125.845	132.530	115.174	190.399	199.877	40.285
58.000	303.177	277.824	262.736	299.262	313.658	314.947	315.090	293.341	286.490	304.204	228.095	221.363	116.081	142.127	156.642	119.423	105.147	104.192	104.216	125.607	132.769	114.840	190.256	198.588	40.239
59.000	304.037	280.665	264.717	299.501	313.729	314.828	315.162	293.604	286.394	304.466	228.239	223.130	115.269	138.546	154.541	118.850	105.028	103.977	103.977	125.296	132.745	114.410	190.113	196.869	41.367
60.000	305.230	283.458	266.388	300.408	314.111	314.899	315.257	294.034	286.514	304.777	228.095	224.228	114.696	135.753	152.512	118.492	105.123	104.025	104.001	125.010	132.673	114.004	190.113	195.126	41.232
61.000	305.493	285.630	268.036	300.742	314.040	314.971	315.448	294.607	286.418	305.350	228.167	226.114	114.147	133.676	150.889	118.158	104.932	104.001	104.049	124.914	132.745	113.574	190.089	193.407	39.969
62.000	305.398	288.113	269.778	300.766	313.920	314.875	315.114	294.225	286.418	305.398	228.119	228.119	113.670	131.623	149.337	117.848	104.861	103.834	103.906	124.580	132.697	113.407	190.065	191.617	39.112
63.000	306.233	289.880	271.354	300.933	314.040	315.329	315.544	294.487	286.108	305.660	228.334	229.575	113.169	129.975	148.000	117.513	104.861	103.858	103.858	124.317	132.721	113.049	189.898	189.850	40.736
64.000	306.448	290.811	272.333	301.148	314.278	315.353	315.544	294.535	286.203	305.827	228.167	231.127	113.049	128.376	146.329	117.346	104.741	103.858	103.858	124.389	132.649	112.763	189.898	188.370	42.586
65.000	307.212	292.554	273.861	301.840	313.944	315.162	315.591	294.941	286.179	306.114	228.382	232.894	112.524	126.943	145.207	117.036	104.646	103.715	103.882	124.222	132.673	112.500	189.922	186.794	41.683
66.000	307.236	293.246	274.410	301.888	314.183	315.162	315.496	294.941	286.442	306.639	228.215	234.350	112.023	126.180	144.323	116.869	104.789	103.810	103.810	123.912	132.816	112.405	189.874	185.410	39.247
67.000	307.260	294.583	275.842	301.864	314.207	315.233	315.520	295.036	286.323	306.925	228.668	235.520	111.855	125.057	143.297	116.630	104.861	103.762	103.667	123.888	132.602	112.142	189.802	184.025	39.157
68.000	307.642	295.275	276.773	302.079	313.920	314.971	315.448	294.917	286.132	307.140	228.143	236.451	111.712	124.222	142.318	116.535	104.574	103.858	103.786	123.721	132.721	112.046	189.874	183.022	41.232
69.000	307.785	296.063	277.561	302.533	314.350	315.090	315.305	295.108	286.227	307.021	228.358	237.764	111.474	123.553	141.650	116.272	104.526	103.762	103.953	123.840	132.745	111.855	189.969	181.709	43.804
70.000	308.334	296.779	278.110	302.652	314.493	315.448	315.639	295.371	286.585	307.188	228.334	238.958	111.402	122.694	140.718	116.129	104.526	103.715	103.762	123.601	132.721	111.641	189.922	180.539	41.593
71.000	308.620	297.663	278.850	302.795	314.255	315.162	315.711	295.466	286.418	307.451	228.716	240.366	111.020	122.312	140.074	116.081	104.455	103.810	103.786	123.434	132.769	111.593	189.826	179.513	39.247
72.000	308.406	297.997	279.734	302.652	314.183	315.233	315.377	295.514	286.275	307.713	228.167	241.273	110.829	121.644	139.668	115.986	104.526	103.691	103.739	123.506	132.840	111.450	189.755	178.439	38.660
73.000	308.716	298.498	280.426	302.771	314.159	315.186	315.711	295.824	286.370	307.856	228.453	241.894	110.781	120.856	138.832	115.866	104.502	103.691	103.715	123.339	132.912	111.211	189.826	177.460	42.811
74.000	309.074	298.808	280.617	302.628	314.207	315.210	315.806	295.777	286.108	307.856	228.740	242.777	110.208	120.569	138.379	115.795	104.455	103.786	103.762	123.243	132.792	111.306	189.683	176.433	44.075
75.000	308.955	299.238	281.381	303.082	314.422	315.138	315.568	295.753	286.370	307.976	228.430	244.019	110.280	120.211	137.782	115.651	104.407	103.643	103.786	123.219	132.864	111.163	189.778	175.383	40.510
76.000	308.979	299.978	282.049	303.273	314.469	315.377	315.400	295.562	286.299	307.904	228.382	244.735	110.280	119.972	137.448	115.627	104.598	103.667	103.643	123.100	132.745	110.924	189.802	174.834	38.164
77.000	309.766	299.692	282.288	303.512	314.637	315.591	315.950	295.991	286.203	307.928	228.501	245.499	110.232	119.519	136.779	115.580	104.407	103.715	103.715	123.124	132.697	110.829	189.850	173.903	39.157
78.000	309.337	300.408	282.575	303.034	314.231	315.138	315.472	295.681	286.275	308.382	228.668	246.573	109.778	119.209	136.469	115.460	104.383	103.619	103.667	122.981	132.769	110.686	189.731	172.876	43.578
79.000	309.742	300.718	282.980	303.297	314.183	315.591	315.687	296.015	286.514	308.334	228.668	247.695	109.707	118.683	136.135	115.317	104.431	103.715	103.715	122.957	132.649	110.590	189.707	171.849	44.030
80.000	309.790	301.148	283.553	303.726	314.469	315.329	315.544	296.254	286.275	308.310	228.525	248.340	109.659	118.516	135.681	115.198	104.431	103.810	103.739	123.052	132.888	110.542	189.635	171.133	39.653
81.000	310.292	301.267	283.625	303.631	314.302	315.377	315.854	296.182	286.251	308.811	228.501	248.746	109.731	118.277	135.180	115.269	104.431	103.667	103.882	122.861	132.840	110.471	189.731	170.680	37.487
82.000	310.124	301.220	284.007	303.297	314.493	315.377	315.520	296.135	286.132	308.477	228.740	249.056	109.468	118.039	135.084	115.269	104.359	103.691	103.715	122.933	132.816	110.328	189.659	170.322	40.059
83.000	309.647	301.291	284.246	303.774	314.637	315.233	315.615	295.800	286.370	308.549	228.788	249.414	109.468	118.063	134.726	115.126	104.383	103.595	103.691	122.718	132.792	110.423	189.587	169.868	44.210
84.000	309.742	301.864	284.890	303.488	314.350	315.138	315.448	296.254	286.299	308.811	228.883	250.369	109.134	117.824	134.511	115.126	104.383	103.667	103.667	122.813	132.721	110.280	189.826	169.032	43.353
85.000	310.292	302.079	285.081	303.655	314.469	315.424	315.687	296.302	286.299	308.788	228.310	251.539	109.468	117.466	134.297	115.150	104.383	103.571	103.548	122.646	132.888	110.256	189.707	168.077	39.157
86.000	310.124	302.413	285.368	303.870	314.589	315.042	315.544	295.968	286.179	308.740	228.931	252.303	108.991	117.251	133.962	115.031	104.311	103.524	103.595	122.766	132.792	109.969	189.707	167.027	37.217
87.000	310.339	302.318	285.917	303.559	314.302	315.472	315.663	296.349	286.466	309.098	228.597	253.353	109.182	117.012	133.700	114.887	104.335	103.715	103.667	122.766	132.840	109.874	189.587	166.359	41.232
88.000	310.172	302.389	285.678	303.941	314.589	315.281	315.520	296.135	286.203	309.074	228.812	253.712	108.871	116.726	133.222	114.959	104.288	103.667	103.667	122.599	132.745	109.874	189.540	165.356	44.751
89.000	310.220	303.201	286.156	303.607	314.398	315.424	315.711	296.111	286.251	309.265	228.788	254.595	108.704	116.415	132.983	114.959	104.359	103.715	103.619	122.551	132.792	109.850	189.564	164.687	42.676
