-----------------------------------------------------
BloodHound 307 VOC Analyser V2017.1
RoboScientific Ltd 
Espace North
Wisbech Road
Littleport
Cambridgeshire, UK
CB6 1RA 
-----------------------------------------------------
Date = 06/04/2022
Time = 11:52:16
Data is protected by RoboScientific Limited
-----------------------------------------------------
Name of the experiment = "32b_Day 27"
-----------------------------------------------------
Repeat No. = 4/4
-----------------------------------------------------
Experimental Time (in sec) and Flow Profile :
-----------------------------------------------------
Baseline = 2.00
Absorb = 4.00
Pause = 1.00
Desorb = 5.00
Flush = 20.00
Wait = 5.00
Higher Flow (V) = 4.00
Medium Flow (V) = 3.00
Low Flow (V) = 1.00
-----------------------------------------------------
Total Profile Time = 37 in sec
-----------------------------------------------------
Acquired data point per second = 4
--------------------------------------------------
Total data point stored  = 128
-----------------------------------------------------
Acquired sensor responses from 24 sensors
-----------------------------------------------------

Data Points	 Sen-1	 Sen-2	 Sen-3	 Sen-4	 Sen-5	 Sen-6	 Sen-7	 Sen-8	 Sen-9	 Sen-10	 Sen-11	 Sen-12	 Sen-13	 Sen-14	 Sen-15	 Sen-16	 Sen-17	 Sen-18	 Sen-19	 Sen-20	 Sen-21	 Sen-22	 Sen-23	 Sen-24	Humidity (%r.h.)
0.000	312.512	307.307	297.734	304.968	314.899	315.472	315.544	295.920	286.060	311.318	229.026	276.940	106.293	112.046	121.309	113.646	104.168	103.715	103.548	123.148	132.912	107.558	189.420	142.461	43.172
1.000	313.228	307.379	298.212	305.183	314.804	315.496	315.663	295.944	285.917	311.008	228.812	276.821	106.341	111.975	121.142	113.837	104.073	103.500	103.643	123.171	132.936	107.654	189.444	142.318	35.096
2.000	313.252	307.284	297.686	304.872	315.186	315.591	315.878	295.991	286.132	311.270	228.835	277.298	106.412	111.975	121.095	113.622	103.977	103.428	103.619	123.148	133.031	107.749	189.444	142.103	37.171
3.000	312.774	307.331	298.068	304.777	314.971	315.568	315.782	295.777	285.821	311.175	228.883	277.489	106.460	111.951	121.142	113.718	104.049	103.691	103.667	123.028	132.983	107.511	189.444	141.793	45.834
4.000	313.133	307.928	298.235	305.183	315.210	315.568	315.806	295.729	285.917	311.223	228.788	277.633	106.460	111.975	121.071	113.718	103.906	103.452	103.524	123.100	133.127	107.797	189.420	141.673	46.015
5.000	313.371	307.212	297.877	305.183	315.019	315.639	316.117	295.944	286.060	311.461	228.740	277.466	106.341	111.903	120.880	113.670	104.001	103.619	103.619	123.124	133.151	107.487	189.468	141.482	37.668
6.000	313.085	307.379	298.450	304.944	314.780	315.472	315.902	295.848	285.917	311.342	228.644	277.680	106.388	111.784	120.951	113.741	103.977	103.571	103.476	123.052	133.031	107.654	189.396	141.626	34.645
7.000	313.324	307.809	298.092	304.944	314.875	315.782	315.950	296.087	286.251	310.936	228.812	277.680	106.245	111.879	120.927	113.622	103.929	103.643	103.643	123.124	133.055	107.534	189.468	141.339	42.541
8.000	312.965	307.833	298.307	305.111	314.613	315.281	315.711	295.968	286.036	311.390	228.740	277.967	106.221	111.832	120.880	113.622	104.025	103.571	103.595	123.076	133.007	107.558	189.468	141.220	47.865
9.000	313.085	307.785	298.474	304.944	314.923	315.424	315.759	295.968	286.251	311.294	228.621	278.039	106.293	111.808	120.856	113.574	104.120	103.643	103.595	122.957	133.079	107.511	189.396	141.124	41.819
10.000	311.628	305.803	297.997	304.753	314.541	315.377	315.782	295.848	286.633	311.008	228.048	274.362	107.415	113.837	120.880	113.885	104.216	103.691	103.548	122.957	132.458	108.131	189.778	145.995	34.239
11.000	294.989	252.804	295.800	303.368	314.565	315.138	315.711	294.320	287.063	304.705	226.233	273.646	123.888	164.162	122.981	115.102	104.192	103.929	103.667	124.365	131.599	113.932	191.951	143.249	41.548
12.000	262.258	277.155	290.214	300.121	314.326	314.899	315.663	290.333	287.636	285.654	224.395	296.779	155.138	141.817	128.328	118.421	104.693	104.264	103.834	128.185	131.074	132.005	193.813	122.455	34.870
13.000	229.886	299.716	283.864	294.822	313.920	313.873	315.138	285.344	287.851	270.829	222.867	308.668	190.113	119.304	135.228	124.126	105.123	105.004	103.929	132.983	130.835	148.621	195.078	110.423	35.457
14.000	260.635	310.984	276.702	287.636	313.156	312.989	314.804	280.665	287.564	253.377	222.175	315.687	157.478	106.890	142.986	131.551	105.625	105.720	104.216	138.188	131.241	166.693	196.415	103.834	48.812
15.000	284.317	318.170	268.465	278.803	312.345	311.438	314.255	275.078	287.230	231.867	220.933	320.342	133.771	100.086	151.294	140.026	106.293	107.033	104.455	143.368	131.742	186.532	197.346	98.462	50.346
16.000	301.100	322.419	259.680	268.871	311.438	310.339	314.135	269.014	286.227	233.825	220.551	323.899	118.086	95.884	160.008	149.241	107.224	108.752	105.362	149.313	132.673	184.550	198.182	95.454	35.547
17.000	311.724	326.621	251.348	259.847	310.483	308.143	313.133	262.903	285.439	255.239	219.763	325.547	107.511	93.139	169.271	159.364	108.179	110.471	105.935	156.165	133.652	164.425	198.707	93.664	29.817
18.000	318.027	328.292	244.449	250.202	309.671	305.875	311.939	256.361	284.246	270.781	219.525	327.671	100.611	90.727	177.603	169.176	109.444	113.049	106.938	163.255	134.440	147.499	199.017	91.969	43.849
19.000	322.777	329.820	240.748	240.342	308.047	302.557	310.578	248.961	283.315	282.169	219.525	328.077	96.004	89.462	181.184	178.033	110.948	115.890	108.251	170.417	135.705	135.442	199.423	91.802	54.226
20.000	326.239	330.656	241.560	231.342	306.830	299.453	308.883	241.250	281.811	290.835	219.238	328.674	93.521	87.505	177.030	186.985	112.237	118.898	109.946	177.484	136.994	126.896	199.590	90.155	42.766
21.000	328.483	332.160	245.762	223.965	304.634	295.800	306.997	234.923	280.521	297.615	219.023	330.751	90.823	87.624	171.062	195.293	114.147	122.837	111.999	185.051	138.403	120.713	199.734	89.486	28.644
22.000	330.035	331.897	250.799	221.172	302.676	291.718	304.634	229.217	279.232	302.342	218.904	331.061	89.343	86.717	163.876	197.346	116.105	127.087	114.720	191.235	139.692	115.818	199.949	89.104	36.765
23.000	330.369	332.828	255.669	226.949	300.360	286.967	301.005	224.514	278.039	306.185	218.665	331.778	87.887	86.812	157.979	191.139	118.254	131.551	118.277	195.222	141.053	111.808	199.829	89.223	52.422
24.000	332.064	333.329	260.133	233.801	297.925	282.240	297.137	223.726	275.938	309.480	218.713	331.420	86.932	86.383	152.536	184.001	120.713	136.183	121.596	194.983	142.604	108.847	199.638	87.528	49.895
25.000	332.303	333.831	263.762	238.576	295.132	277.227	293.294	225.708	274.553	311.509	219.095	331.897	86.430	85.571	148.286	179.728	123.840	140.742	125.583	192.858	144.037	107.009	200.283	88.245	33.201
26.000	333.329	334.332	266.126	238.982	293.914	275.938	290.715	226.066	274.099	311.342	218.809	331.563	86.478	85.786	145.684	179.680	125.368	142.676	128.376	192.715	144.658	106.842	200.330	89.438	29.997
27.000	332.924	334.762	266.699	238.098	293.843	276.463	290.214	225.326	273.980	310.554	218.665	331.252	86.669	85.046	144.681	180.157	125.607	142.437	129.140	193.264	144.634	107.534	200.020	88.412	46.105
28.000	332.160	334.189	267.463	237.310	293.461	276.940	289.928	225.087	274.768	310.865	218.856	331.515	86.526	85.619	143.822	181.518	125.535	141.984	129.211	193.718	144.037	107.940	200.092	88.770	54.136
29.000	333.043	333.568	268.656	235.830	293.604	277.394	289.641	224.061	275.030	310.483	218.641	331.754	86.311	85.356	144.037	182.688	125.439	141.530	129.164	194.004	143.750	108.012	200.187	88.531	40.330
30.000	333.544	334.046	269.229	239.125	292.625	275.723	288.638	226.162	274.434	311.724	218.641	331.945	85.786	85.690	142.581	179.179	126.251	143.082	130.525	192.906	144.085	106.675	200.116	89.176	28.148
31.000	332.733	334.475	270.590	243.374	290.286	272.237	285.726	226.376	274.386	311.270	218.904	332.040	87.361	85.810	141.005	174.714	128.328	146.544	133.485	192.118	144.753	106.747	200.187	89.271	38.209
32.000	330.751	334.022	272.070	243.947	289.283	271.545	285.081	224.132	276.320	306.209	218.785	330.226	88.722	86.001	139.931	174.667	129.522	146.902	134.153	194.386	142.700	112.619	199.781	90.393	53.865
33.000	327.409	333.902	272.786	241.488	290.405	274.458	287.492	231.509	279.041	297.328	219.501	328.197	92.255	86.550	139.764	176.600	128.615	143.965	131.456	188.274	139.764	121.978	198.922	93.019	47.459
34.000	323.923	332.470	272.190	236.642	292.410	278.086	290.882	240.342	281.429	283.649	220.695	324.114	96.171	88.149	140.050	182.306	126.371	140.074	128.185	178.916	137.233	136.445	197.657	95.956	31.486
35.000	318.241	330.990	271.521	228.883	294.392	281.978	294.368	248.841	283.553	265.481	221.172	319.483	101.590	88.674	141.029	189.134	124.103	136.421	124.652	170.154	135.633	152.918	196.940	99.680	32.208
36.000	310.435	329.486	269.396	221.148	296.827	286.323	297.949	255.932	284.341	244.449	222.175	314.780	109.516	90.441	143.297	196.749	121.763	132.649	121.596	163.613	134.464	174.476	196.153	105.219	47.684
37.000	298.999	327.289	267.176	224.252	299.047	289.928	300.575	261.279	285.368	222.724	223.082	308.620	120.975	92.303	146.090	194.744	119.495	128.901	118.325	157.597	133.413	196.726	195.150	111.068	50.978
38.000	280.808	325.618	263.977	233.538	301.554	293.604	303.488	265.935	285.797	237.597	223.607	301.769	139.382	94.714	149.050	184.789	117.490	125.320	115.771	152.918	133.055	181.303	194.887	117.991	39.653
39.000	256.266	321.775	260.539	243.231	302.843	296.636	305.589	269.349	286.012	253.091	224.371	294.368	163.637	98.009	153.133	174.858	115.675	121.811	113.383	149.146	132.649	165.499	194.147	125.296	31.622
40.000	231.748	318.027	255.860	252.566	304.538	299.787	307.307	272.404	286.705	265.672	224.180	287.588	187.630	101.662	158.337	165.929	113.980	118.636	111.593	145.827	132.554	153.133	193.741	132.172	39.337
41.000	225.421	313.634	251.444	260.635	305.970	302.557	308.931	274.935	286.633	274.696	224.920	280.474	194.792	106.078	163.876	158.003	112.834	116.224	110.089	143.536	132.458	145.040	193.383	139.000	48.316
42.000	240.366	308.047	245.929	267.367	307.164	305.063	310.172	277.179	286.394	280.903	224.896	273.670	179.823	111.664	169.796	151.294	111.593	113.718	108.871	141.387	132.554	138.140	192.977	145.684	42.992
43.000	252.184	300.503	240.939	272.786	308.191	306.734	311.270	278.850	286.609	285.535	225.493	266.723	166.215	119.232	175.789	145.732	110.256	111.569	107.749	139.143	132.387	133.556	192.882	152.106	35.953
44.000	264.216	291.073	236.356	277.394	309.170	308.692	312.369	280.784	286.442	289.211	225.732	260.062	155.520	127.970	182.187	140.909	109.397	109.707	107.009	137.782	132.578	129.928	192.595	158.433	37.758
45.000	273.121	280.784	233.419	281.429	310.148	310.339	312.798	282.097	286.347	291.837	226.090	253.067	147.069	138.069	186.770	137.209	108.824	108.728	106.460	136.230	132.339	127.063	192.214	164.831	44.255
46.000	280.163	271.426	233.395	284.628	310.817	311.390	313.419	283.076	286.418	293.962	226.066	246.979	139.620	148.382	187.964	134.034	108.060	107.821	105.959	135.204	132.482	124.723	191.951	171.253	43.804
47.000	285.439	260.587	236.021	287.015	310.912	311.891	313.538	284.031	286.514	296.015	226.663	241.441	133.915	158.791	184.622	131.265	107.558	106.938	105.505	134.201	132.434	123.148	191.808	177.125	39.518
48.000	289.808	249.295	239.960	289.235	311.748	312.631	313.992	285.344	286.370	297.161	226.496	236.594	129.617	169.844	179.966	129.140	106.938	106.245	105.266	133.222	132.506	121.524	191.593	182.163	38.796
49.000	292.912	235.687	244.544	291.217	311.891	313.013	314.255	286.299	286.084	298.379	226.615	231.557	126.323	182.473	175.144	127.373	106.532	105.792	104.861	132.363	132.649	120.498	191.354	186.460	41.413
50.000	295.944	223.225	249.916	292.936	312.440	313.514	314.541	287.349	286.466	299.954	226.782	226.735	123.959	195.627	169.725	125.416	106.150	105.410	104.717	131.336	132.769	119.137	191.402	191.521	42.586
51.000	297.901	233.467	254.165	294.702	312.989	313.753	314.422	288.018	286.585	301.100	227.164	223.034	121.691	186.365	164.735	123.912	105.887	104.932	104.574	130.334	132.912	117.872	191.330	195.962	40.375
52.000	299.501	245.690	258.367	295.991	313.037	314.040	314.756	288.877	286.156	301.912	226.639	220.432	120.068	173.234	159.889	122.885	105.744	104.884	104.407	129.665	132.864	117.227	191.187	198.731	39.879
53.000	300.551	256.457	262.282	297.090	313.300	314.159	314.780	289.641	286.108	302.843	227.045	219.811	118.683	162.610	156.403	121.739	105.648	104.717	104.407	129.092	132.673	116.344	191.068	200.092	40.510
54.000	301.769	265.123	265.911	298.068	313.658	314.398	315.162	290.333	285.965	303.130	227.307	220.527	117.513	155.019	153.395	121.095	105.338	104.574	104.240	128.304	132.936	115.675	190.972	199.662	40.375
55.000	302.533	271.235	268.513	298.259	313.586	314.565	315.257	291.742	286.490	303.822	227.475	222.127	116.439	148.358	150.602	120.331	105.338	104.407	104.192	127.182	132.936	115.269	190.853	197.895	40.239
56.000	303.464	276.033	270.900	299.119	313.896	314.493	315.233	291.933	285.917	304.037	227.355	224.228	116.009	143.512	148.310	119.781	105.147	104.288	104.097	126.776	132.960	114.673	190.709	195.747	41.367
57.000	304.562	279.566	273.216	299.692	313.968	315.066	315.305	292.458	286.227	304.514	227.427	226.305	115.031	139.429	145.756	119.232	105.075	104.311	104.120	126.347	132.888	114.171	190.686	193.336	41.503
58.000	305.039	282.909	274.696	300.169	314.135	314.780	315.090	292.530	286.179	305.159	227.498	228.668	114.505	136.421	144.085	118.850	105.004	104.192	104.097	125.989	133.055	113.956	190.662	191.068	39.337
59.000	305.780	285.941	276.654	300.193	313.777	314.899	315.400	292.959	286.490	305.636	227.809	230.650	113.813	133.795	142.390	118.421	104.932	104.192	104.025	125.798	132.912	113.479	190.471	188.967	39.112
60.000	306.233	287.874	278.110	300.694	314.159	315.162	315.424	293.150	285.869	305.660	227.594	232.202	113.336	131.599	140.838	117.895	104.717	103.977	103.858	125.654	132.960	113.121	190.518	186.937	41.503
61.000	306.376	289.713	279.686	301.172	313.920	314.947	315.257	293.150	286.012	306.066	227.737	234.088	113.001	129.737	139.286	117.609	104.837	103.834	103.882	125.439	132.912	113.073	190.423	185.099	42.992
62.000	306.830	291.217	280.736	301.148	314.040	315.090	315.353	293.509	285.821	306.305	228.095	235.592	112.548	128.352	138.188	117.418	104.765	103.906	103.810	125.201	132.936	112.763	190.423	183.715	40.420
63.000	307.307	292.291	281.763	301.578	314.111	315.042	315.448	293.628	285.917	306.352	227.976	237.119	112.142	127.278	137.281	117.108	104.598	103.977	103.953	125.105	133.079	112.428	190.328	182.187	39.021
64.000	307.928	293.509	282.551	301.936	314.565	315.281	315.687	293.723	285.988	306.615	227.857	238.982	111.664	125.654	136.183	116.893	104.717	104.049	103.977	125.010	133.007	112.190	190.399	180.348	40.059
65.000	308.000	294.774	283.649	302.246	314.446	314.875	315.233	293.891	286.012	306.830	228.286	240.247	111.497	124.890	135.347	116.821	104.502	103.739	103.715	124.747	133.151	112.190	190.328	179.011	43.939
66.000	307.737	295.753	284.556	302.246	314.469	315.066	315.377	293.843	285.869	307.045	228.167	241.464	110.996	123.888	134.535	116.487	104.359	103.810	103.619	124.628	133.151	111.951	190.160	177.842	42.180
67.000	308.549	296.421	285.368	302.580	314.589	314.947	315.281	294.559	286.179	307.116	228.119	242.873	111.044	123.148	133.747	116.463	104.526	103.715	103.786	124.604	132.983	111.664	190.137	176.696	39.066
68.000	308.310	297.209	286.179	302.437	314.326	315.114	315.353	294.392	286.203	307.546	228.071	243.637	110.733	122.455	133.079	116.177	104.431	103.858	103.834	124.652	133.055	111.426	190.160	175.526	38.615
69.000	308.286	297.663	286.561	302.389	314.422	315.257	315.568	294.320	285.893	307.475	227.904	244.592	110.710	121.500	132.434	116.200	104.479	103.691	103.691	124.389	133.031	111.474	189.993	174.428	42.902
70.000	309.122	298.045	287.110	302.342	314.589	315.162	315.544	294.631	286.036	307.737	228.262	246.120	110.280	121.214	132.005	115.962	104.383	103.762	103.786	124.389	132.983	111.330	190.017	173.162	44.165
71.000	309.193	298.474	287.898	303.082	314.732	315.257	315.639	294.678	285.750	307.809	228.024	247.146	110.328	120.736	131.503	116.009	104.455	103.739	103.786	124.437	132.983	111.020	190.041	172.255	39.788
72.000	309.098	299.572	288.519	302.676	314.087	315.090	315.520	294.774	285.893	307.785	228.215	247.982	110.041	120.235	130.716	115.795	104.335	103.643	103.667	124.270	133.103	110.996	189.969	171.420	37.577
73.000	309.504	299.740	288.710	302.891	314.302	315.544	315.639	294.678	286.156	307.952	228.095	248.770	109.922	119.781	130.405	115.675	104.431	103.882	103.810	124.270	133.079	110.901	189.922	170.274	41.232
74.000	309.981	299.811	288.805	303.201	314.804	315.233	315.687	294.989	285.869	307.737	228.239	249.820	110.041	119.376	130.047	115.580	104.383	103.786	103.715	124.222	132.912	110.757	190.017	169.247	44.300
75.000	309.719	300.766	289.951	303.034	314.422	315.496	315.711	294.845	285.821	308.215	228.286	250.632	109.588	119.065	129.570	115.508	104.359	103.786	103.810	124.126	133.007	110.614	189.922	168.531	41.819
76.000	309.838	300.885	289.880	303.416	314.660	315.400	315.305	294.487	286.132	308.501	228.191	251.921	109.683	118.612	129.164	115.675	104.359	103.691	103.619	123.935	133.007	110.423	190.041	167.361	37.623
77.000	310.315	301.458	290.119	303.106	314.708	315.400	315.759	294.678	285.965	308.286	228.167	252.995	109.492	118.397	128.925	115.317	104.407	103.739	103.715	124.103	133.127	110.471	189.850	166.454	38.751
78.000	310.650	301.053	290.071	303.249	314.565	315.615	316.236	295.132	285.941	308.477	228.191	253.234	109.420	117.824	128.567	115.174	104.335	103.691	103.858	124.103	133.174	110.351	189.826	165.905	44.210
79.000	310.292	301.530	291.050	303.535	314.780	315.138	315.615	295.084	285.941	308.382	228.215	254.117	109.277	117.609	128.257	115.460	104.359	103.906	103.715	123.959	133.079	110.256	189.946	164.998	43.939
80.000	310.483	302.198	291.455	303.368	314.493	315.138	315.782	295.132	286.251	308.811	228.191	255.239	108.895	117.513	128.066	115.055	104.264	103.619	103.739	124.031	133.198	110.280	190.065	164.186	39.112
81.000	310.387	302.127	291.145	303.774	314.660	315.711	315.830	294.965	285.869	308.597	228.119	255.836	109.110	117.132	127.660	114.887	104.240	103.858	103.810	123.935	133.079	110.041	189.850	163.398	37.036
82.000	310.124	302.652	291.718	303.464	314.493	315.186	315.472	294.774	286.299	309.361	228.573	256.600	109.038	116.893	127.636	115.102	104.311	103.786	103.619	123.840	133.079	110.041	189.850	162.897	41.774
83.000	310.124	302.628	291.742	303.870	314.589	315.066	315.568	295.227	286.084	308.955	228.334	256.911	108.824	116.797	127.278	115.031	104.311	103.643	103.715	123.697	132.983	109.850	189.874	162.276	45.112
84.000	310.244	303.153	292.243	303.703	314.517	315.400	315.377	295.132	286.060	308.955	228.406	257.770	108.680	116.606	127.087	114.959	104.359	103.667	103.667	123.816	133.127	109.731	189.898	161.393	41.367
85.000	311.247	302.867	292.410	303.655	314.684	315.329	315.950	295.084	286.275	309.098	228.406	258.391	108.609	116.439	126.920	115.078	104.168	103.667	103.667	123.959	133.031	109.826	189.898	160.915	36.404
86.000	310.984	302.986	292.410	303.559	314.804	315.472	315.568	295.060	286.036	309.361	228.071	258.940	108.633	116.200	126.442	114.768	104.240	103.691	103.691	123.840	133.198	109.659	189.755	160.581	38.976
87.000	311.008	303.631	292.888	303.631	314.422	315.329	315.615	295.371	286.036	309.193	228.262	259.298	108.346	116.248	126.418	114.768	104.264	103.643	103.715	123.744	133.031	109.683	189.826	159.865	44.797
88.000	310.793	303.846	292.959	304.490	314.708	315.186	315.568	295.108	285.845	309.098	228.453	259.775	108.633	115.842	126.323	114.744	104.240	103.667	103.595	123.792	133.151	109.659	189.802	159.507	43.669
89.000	310.697	303.559	293.652	303.893	314.708	315.424	315.544	295.084	285.965	309.504	228.143	260.086	108.465	115.914	126.108	114.792	104.311	103.667	103.691	123.744	133.055	109.516	189.611	159.149	37.532
