-----------------------------------------------------
BloodHound 307 VOC Analyser V2017.1
RoboScientific Ltd 
Espace North
Wisbech Road
Littleport
Cambridgeshire, UK
CB6 1RA 
-----------------------------------------------------
Date = 21/04/2022
Time = 11:34:58
Data is protected by RoboScientific Limited
-----------------------------------------------------
Name of the experiment = "44b_Day 32"
-----------------------------------------------------
Repeat No. = 4/4
-----------------------------------------------------
Experimental Time (in sec) and Flow Profile :
-----------------------------------------------------
Baseline = 2.00
Absorb = 4.00
Pause = 1.00
Desorb = 5.00
Flush = 20.00
Wait = 5.00
Higher Flow (V) = 4.00
Medium Flow (V) = 3.00
Low Flow (V) = 1.00
-----------------------------------------------------
Total Profile Time = 37 in sec
-----------------------------------------------------
Acquired data point per second = 4
--------------------------------------------------
Total data point stored  = 128
-----------------------------------------------------
Acquired sensor responses from 24 sensors
-----------------------------------------------------

Data Points	 Sen-1	 Sen-2	 Sen-3	 Sen-4	 Sen-5	 Sen-6	 Sen-7	 Sen-8	 Sen-9	 Sen-10	 Sen-11	 Sen-12	 Sen-13	 Sen-14	 Sen-15	 Sen-16	 Sen-17	 Sen-18	 Sen-19	 Sen-20	 Sen-21	 Sen-22	 Sen-23	 Sen-24	Humidity (%r.h.)
0.000	302.652	261.852	247.122	304.084	312.894	314.231	314.899	302.819	290.429	303.058	228.979	221.005	116.606	157.358	171.945	114.720	105.863	104.861	104.407	115.890	128.949	116.200	189.444	198.612	39.788
1.000	302.915	261.542	247.863	304.156	313.228	313.992	314.971	302.915	289.904	303.082	229.217	220.623	116.559	158.361	171.420	114.792	105.839	104.837	104.288	115.818	128.901	116.296	189.468	198.588	40.826
2.000	302.724	261.041	248.149	304.299	313.204	313.944	315.042	303.321	290.095	302.748	228.621	220.862	116.487	158.337	171.062	114.744	105.720	104.646	104.144	115.818	128.925	116.344	189.396	198.444	41.277
3.000	303.153	261.160	248.364	304.061	313.109	313.920	314.828	302.962	290.572	302.724	228.740	221.387	116.678	158.265	170.918	114.625	105.792	104.837	104.216	115.842	128.830	116.105	189.444	197.991	40.465
4.000	302.819	261.447	248.125	304.252	313.180	314.326	315.042	303.034	290.286	302.652	228.979	221.482	116.606	158.194	170.704	114.577	105.744	104.837	104.168	115.842	128.782	116.344	189.492	197.824	39.563
5.000	302.437	261.614	248.603	304.204	312.942	314.159	314.828	302.939	290.166	302.413	229.026	221.626	116.606	158.289	170.727	114.601	105.744	104.717	104.311	115.866	128.758	116.248	189.516	197.848	39.247
6.000	302.939	261.160	248.483	304.037	313.252	314.183	314.899	303.034	290.381	302.867	228.668	221.291	116.582	158.480	170.632	114.696	105.720	104.837	104.359	115.842	128.734	116.344	189.611	197.824	39.608
7.000	302.891	261.327	248.674	303.893	313.109	314.159	314.756	303.010	290.357	302.604	228.716	221.482	116.368	158.671	170.441	114.529	105.720	104.956	104.311	115.818	128.782	116.296	189.468	197.943	40.871
8.000	302.819	260.754	248.603	304.371	313.180	313.968	314.684	302.819	290.477	302.652	228.835	221.458	116.845	158.743	170.417	114.458	105.768	104.932	104.288	115.795	128.782	116.224	189.611	197.872	41.367
9.000	303.058	260.539	248.961	304.443	313.228	314.016	314.804	303.010	290.333	302.724	228.668	221.482	116.463	158.934	170.417	114.529	105.577	104.670	104.192	115.771	128.877	116.224	189.420	197.800	40.871
10.000	300.718	281.142	248.603	303.893	312.798	314.064	314.684	302.795	290.047	301.602	228.215	251.682	117.824	137.496	170.345	114.649	105.672	104.837	104.288	115.914	128.710	116.702	189.635	166.812	40.059
11.000	265.696	302.628	245.475	302.986	312.655	313.276	314.613	301.817	290.763	287.922	227.045	282.694	151.820	117.251	173.282	115.699	106.078	105.338	104.335	116.988	128.042	129.975	191.115	138.069	36.856
12.000	233.347	314.875	237.907	300.480	312.106	312.345	314.135	299.405	290.906	249.295	225.851	300.121	186.388	106.030	182.234	118.110	106.579	105.911	104.670	119.113	127.922	172.088	192.381	121.405	34.013
13.000	260.205	321.273	228.621	297.185	311.485	311.843	313.849	296.827	291.097	221.530	224.658	310.029	159.340	98.844	192.524	121.357	107.320	106.961	105.219	121.644	127.731	196.630	193.073	111.712	41.548
14.000	279.734	324.974	237.287	292.840	310.387	310.459	313.228	294.177	291.026	238.194	223.894	316.475	137.854	94.810	181.590	125.511	108.179	107.964	105.601	124.604	127.994	179.489	193.765	104.813	50.752
15.000	295.060	327.886	247.910	287.707	309.599	309.313	312.631	290.954	290.119	253.043	224.037	320.581	122.790	92.064	168.101	130.405	109.182	109.134	106.174	127.516	128.304	165.022	194.290	99.752	50.617
16.000	306.257	329.987	258.462	282.240	308.716	308.215	311.843	287.636	289.665	265.051	223.130	323.470	112.405	90.035	156.952	136.326	110.256	110.972	107.152	131.169	129.355	153.371	195.007	97.412	40.736
17.000	314.159	331.252	266.985	275.603	306.711	306.281	311.223	283.673	288.782	274.338	223.130	325.523	105.052	88.531	147.403	142.676	111.497	112.142	107.940	134.869	130.166	144.156	195.365	95.431	30.088
18.000	319.244	332.279	273.956	269.754	306.090	304.992	309.886	279.495	287.349	282.002	222.867	327.289	99.394	87.242	140.098	149.217	113.192	114.028	109.062	139.573	131.002	136.636	195.484	93.759	30.043
19.000	323.135	333.807	279.662	262.855	304.132	302.795	308.525	274.028	286.633	287.516	222.294	328.865	95.407	86.979	133.509	155.950	114.887	115.842	110.471	145.111	132.220	130.310	195.818	92.422	39.924
20.000	325.427	333.616	283.792	256.361	301.888	300.312	306.782	268.441	285.272	292.601	222.413	329.032	92.995	86.597	128.639	163.016	116.654	118.206	112.190	150.578	133.246	126.060	195.914	91.205	51.745
21.000	327.695	333.353	288.280	249.772	300.265	297.877	304.681	262.974	284.484	296.421	222.437	330.298	91.086	86.024	124.461	168.865	118.588	120.689	114.243	156.188	134.153	121.978	196.224	91.014	52.692
22.000	329.510	334.093	291.384	243.088	298.474	295.180	302.413	256.887	283.529	300.121	222.485	330.918	90.059	85.451	120.856	175.765	120.808	123.553	116.439	162.157	135.466	118.540	195.986	89.940	42.450
23.000	330.990	335.120	293.580	237.191	295.586	291.933	299.644	250.799	281.739	303.106	222.127	330.847	88.794	85.404	118.206	182.163	123.052	126.562	119.256	168.364	136.660	115.174	196.129	89.558	30.629
24.000	330.656	334.666	295.562	231.509	293.222	288.996	296.660	245.427	280.879	305.732	222.008	331.897	87.767	85.213	116.057	187.869	126.108	129.784	122.575	174.332	137.973	112.237	195.842	88.794	29.005
25.000	332.733	335.192	297.901	227.475	290.047	285.988	292.816	240.104	279.519	307.785	222.127	331.778	87.385	84.616	114.362	192.763	128.734	132.673	126.203	180.086	139.429	110.590	196.463	88.292	38.480
26.000	332.184	335.168	298.403	226.018	288.328	284.675	290.596	238.313	279.184	307.451	222.366	332.160	86.932	85.284	113.192	193.670	130.716	134.010	128.877	181.638	139.692	110.733	196.391	88.579	50.978
27.000	332.709	334.786	298.641	225.541	288.233	285.129	289.593	238.600	279.065	307.045	222.199	332.255	86.979	84.998	112.930	194.123	130.978	133.843	129.546	181.351	139.811	111.402	196.129	87.815	53.550
28.000	332.351	335.430	299.358	226.066	287.540	284.986	289.307	239.483	279.137	306.997	222.270	332.542	86.717	85.451	112.572	193.956	131.599	133.771	129.952	180.587	139.549	111.569	196.367	87.552	43.127
29.000	332.947	336.027	298.952	226.066	287.445	285.224	288.901	240.032	279.423	306.687	222.557	331.300	87.170	84.592	112.882	193.980	131.718	133.533	130.286	180.014	139.477	112.333	196.367	87.767	30.945
30.000	333.759	335.502	299.859	225.565	287.230	284.413	287.564	238.552	278.970	307.737	222.246	332.422	86.550	85.189	112.787	194.386	132.267	134.559	131.527	181.256	139.859	110.304	196.153	88.579	28.193
31.000	333.497	335.669	300.623	224.538	284.747	281.214	284.771	234.637	278.110	310.411	221.960	332.327	85.571	85.213	112.046	195.031	134.511	137.400	134.320	185.601	141.029	108.227	196.272	87.337	36.765
32.000	333.711	336.361	300.814	225.708	282.312	277.848	281.429	230.101	276.320	311.915	222.294	333.091	85.547	83.924	110.877	192.691	137.137	140.766	137.901	189.826	142.246	106.938	196.726	87.934	50.166
33.000	334.165	336.075	302.079	228.334	279.184	274.338	277.394	227.427	275.126	312.488	222.175	332.255	85.260	84.687	109.611	189.564	139.764	143.894	141.650	193.192	143.727	106.317	196.749	88.030	54.587
34.000	332.422	335.860	303.201	230.292	276.845	272.667	274.601	228.262	275.818	311.151	222.246	332.231	87.003	84.950	109.659	187.248	142.390	146.233	144.825	192.237	143.536	107.582	196.344	87.934	46.421
35.000	331.945	335.001	303.535	230.602	275.293	272.834	274.314	232.321	276.630	308.095	222.151	330.656	88.292	85.046	109.301	186.770	143.918	146.114	145.493	187.415	142.151	111.163	196.558	89.319	33.833
36.000	330.298	335.120	303.631	230.125	275.221	273.526	275.030	237.931	278.731	302.485	222.342	329.987	90.035	84.544	108.728	187.678	143.918	145.159	144.061	181.041	140.026	116.678	196.081	89.725	27.877
37.000	328.794	335.406	303.464	228.000	275.675	275.221	277.155	245.093	280.450	295.872	222.795	328.030	91.444	85.523	108.847	189.444	143.440	143.130	141.721	174.094	138.283	122.694	195.938	92.088	33.291
38.000	327.218	334.356	303.726	226.138	277.489	277.633	280.068	251.444	282.264	287.994	223.464	325.690	92.757	86.263	109.206	191.760	141.841	140.814	139.047	167.361	136.564	130.501	195.007	92.948	44.706
39.000	323.613	333.688	303.512	223.917	279.304	280.498	283.028	258.033	283.816	279.065	223.440	323.446	95.240	86.072	110.160	194.410	139.764	138.665	136.326	161.250	135.156	139.596	194.505	95.478	53.459
40.000	321.273	333.115	302.533	223.416	281.118	282.479	286.203	263.452	285.105	269.826	224.013	320.223	98.701	85.666	110.399	195.890	137.806	136.326	133.103	155.616	133.819	149.814	194.267	98.534	48.993
41.000	317.931	332.375	302.628	225.087	283.434	284.866	289.116	268.394	286.084	258.844	224.586	318.337	101.471	87.003	111.211	194.744	135.514	134.034	130.047	150.650	132.673	160.533	193.503	101.542	39.247
42.000	313.514	332.375	301.124	228.262	285.750	286.800	291.527	272.309	286.752	247.170	225.016	314.374	106.078	87.361	111.712	190.996	133.222	131.288	127.039	146.162	132.076	172.255	193.312	104.956	29.817
43.000	308.525	331.921	300.336	232.416	287.922	288.925	294.416	275.914	287.612	235.424	225.087	311.175	110.256	88.030	112.476	186.603	131.002	129.593	124.508	142.557	131.265	183.022	192.977	108.251	31.712
44.000	302.604	330.847	298.999	237.096	289.784	290.954	296.827	279.352	287.827	224.108	225.827	307.212	115.914	89.247	113.909	181.661	129.068	127.493	122.097	139.429	130.859	194.100	192.572	112.237	40.194
45.000	295.920	329.605	297.830	242.085	291.885	292.983	299.119	281.858	288.543	219.071	226.138	303.416	123.434	89.940	115.174	176.934	127.063	125.726	119.805	136.684	130.548	200.092	192.643	115.365	49.805
46.000	288.042	328.913	296.540	246.884	293.628	294.822	301.172	284.819	288.782	228.262	226.233	300.121	132.124	90.226	116.750	171.706	125.201	123.912	117.848	134.440	130.286	191.187	192.142	119.376	49.083
47.000	278.874	328.674	294.845	251.706	295.371	296.588	302.843	286.514	288.925	236.881	226.257	296.708	140.814	92.160	118.373	166.908	123.434	122.288	116.368	132.506	129.999	182.163	192.023	123.386	41.367
48.000	268.943	327.528	292.219	256.003	296.755	298.068	304.395	287.922	288.782	244.425	226.735	293.676	150.507	92.422	121.166	162.228	121.858	120.402	114.720	130.596	129.904	174.022	191.712	126.490	33.066
49.000	259.155	326.836	290.214	260.324	298.450	299.859	305.326	289.450	289.307	252.064	226.782	290.333	159.865	93.497	123.362	157.836	120.140	118.421	113.407	129.092	129.689	166.287	191.569	129.426	32.930
50.000	249.414	324.902	286.728	265.099	300.026	301.960	306.925	291.264	289.331	259.656	226.997	286.394	169.820	94.547	126.156	153.109	118.827	116.702	112.118	127.564	129.617	159.149	191.545	133.007	39.112
51.000	240.151	324.544	283.434	269.468	301.482	303.703	308.334	292.386	289.569	265.696	227.140	282.527	178.725	95.025	129.737	149.265	117.370	115.293	111.187	126.394	129.379	153.539	191.402	136.660	46.962
52.000	233.204	323.279	280.020	272.977	302.151	304.538	308.907	293.747	289.498	269.778	227.355	279.686	186.317	96.457	133.819	145.398	116.105	113.813	110.375	125.368	129.402	148.835	190.996	140.026	47.233
53.000	227.570	322.515	276.224	276.296	303.893	306.066	309.599	294.129	289.331	273.861	227.570	276.821	192.046	97.173	138.236	142.199	115.102	112.810	109.468	124.365	129.355	144.992	191.068	143.106	41.593
54.000	223.034	321.894	271.760	278.612	304.395	306.997	310.101	295.060	289.593	276.749	227.307	273.861	196.749	98.176	142.819	139.429	114.123	111.712	108.895	123.506	129.331	141.817	190.948	145.732	35.231
55.000	219.716	320.557	267.701	281.214	305.374	307.737	310.960	295.944	289.522	279.543	227.546	271.760	199.996	98.653	147.594	137.257	113.169	110.877	108.394	122.885	129.379	139.525	191.020	148.239	34.509
56.000	219.620	319.793	262.760	283.386	306.138	308.382	310.936	296.349	289.331	281.476	227.594	269.396	200.235	100.301	151.509	135.084	112.524	110.089	107.892	122.384	129.211	137.448	190.829	150.387	38.886
57.000	222.700	318.982	258.582	285.368	307.021	309.170	311.366	296.755	289.593	283.124	227.809	267.152	196.988	100.730	156.666	133.413	111.999	109.731	107.487	121.811	129.283	135.729	190.805	152.607	45.157
58.000	227.809	317.883	254.404	286.896	307.284	309.623	311.915	297.209	289.426	284.914	227.498	264.980	191.641	101.542	161.226	131.670	111.330	109.134	107.296	121.381	129.283	134.058	190.590	154.470	45.699
59.000	233.920	317.334	250.680	288.782	308.095	309.957	311.867	297.663	289.737	286.347	227.666	263.523	186.174	102.139	165.451	130.262	110.877	108.871	107.081	120.999	129.211	132.434	190.638	156.332	42.405
60.000	239.053	316.355	247.099	289.689	308.382	310.435	312.607	297.997	289.832	287.397	228.048	261.423	180.563	102.927	169.701	128.973	110.399	108.298	106.675	120.498	129.092	131.384	190.518	158.265	37.217
61.000	244.305	315.687	243.518	290.811	308.811	310.674	312.631	298.617	289.951	288.543	227.618	259.584	175.407	104.073	173.544	127.898	109.993	108.060	106.556	120.378	129.235	130.334	190.447	160.032	35.682
62.000	248.626	315.114	240.319	291.360	309.241	311.318	312.703	298.594	289.808	289.546	227.976	258.104	170.942	104.837	176.553	127.015	109.683	107.654	106.293	120.020	129.283	129.522	190.423	161.345	38.525
63.000	252.971	314.016	237.310	292.482	308.955	310.984	312.822	299.095	289.856	290.429	228.239	256.529	166.932	105.696	179.966	126.108	109.349	107.630	106.341	119.781	129.116	128.543	190.518	163.016	43.533
64.000	256.051	313.514	234.708	293.127	309.289	311.414	313.013	299.214	289.951	290.763	228.095	254.977	163.374	106.197	182.664	125.320	109.229	107.415	106.030	119.590	129.164	127.994	190.232	164.520	44.751
65.000	259.704	313.085	232.774	293.938	309.671	312.058	313.180	299.334	289.808	291.623	228.215	253.879	160.151	106.699	185.290	124.699	108.943	107.296	105.983	119.352	129.188	127.349	190.184	165.762	42.270
66.000	262.282	312.416	230.912	294.893	310.148	311.748	313.395	299.692	289.904	292.100	227.952	252.828	157.167	107.439	187.725	124.007	108.704	106.890	105.792	119.161	129.235	126.681	190.208	167.123	39.112
67.000	265.099	311.796	229.074	295.108	310.101	311.939	313.514	299.692	289.808	292.792	228.239	251.157	154.613	107.964	189.516	123.410	108.561	106.914	105.744	119.041	129.044	126.180	190.137	168.268	36.630
68.000	267.200	310.530	227.904	295.896	310.339	312.106	313.538	299.859	289.569	293.365	228.095	250.226	152.178	108.824	191.044	122.885	108.489	106.770	105.625	118.898	129.044	125.535	190.065	169.462	38.480
69.000	269.134	310.411	227.164	295.944	310.769	312.321	313.324	299.716	289.904	293.819	228.000	249.128	150.316	109.229	192.309	122.551	108.227	106.579	105.410	118.636	129.188	125.129	189.969	170.775	42.180
70.000	271.593	309.910	226.400	296.397	310.268	312.488	313.896	300.289	290.095	293.986	228.621	247.552	148.406	109.993	193.527	122.049	108.155	106.532	105.529	118.516	129.092	124.747	189.993	171.826	44.436
71.000	273.097	309.337	225.994	297.137	310.530	312.703	313.849	300.503	289.689	294.463	228.334	246.669	146.687	110.590	194.171	121.644	107.845	106.341	105.481	118.397	129.188	124.461	190.017	172.828	43.127
72.000	274.959	308.668	225.923	297.591	310.793	312.607	314.016	300.623	289.784	294.845	228.262	245.809	145.040	111.283	194.720	121.214	107.892	106.269	105.362	118.277	129.092	123.959	189.922	173.759	39.743
73.000	275.794	307.498	226.424	297.639	311.032	312.583	313.801	300.456	289.737	295.538	228.310	244.520	143.345	111.903	194.529	120.904	107.654	106.197	105.243	118.158	129.044	123.744	189.946	174.667	37.758
74.000	276.940	307.498	225.994	298.331	311.127	312.655	313.753	300.551	289.808	295.633	228.286	243.780	142.366	112.500	194.672	120.689	107.606	106.030	105.243	118.182	129.116	123.434	189.969	175.454	38.209
75.000	278.612	307.164	226.639	298.092	311.103	312.727	313.753	300.718	289.880	295.872	228.382	243.374	140.957	112.978	194.314	120.283	107.558	106.006	105.004	117.895	129.140	123.171	189.946	176.314	41.458
76.000	280.044	306.376	226.973	298.617	311.581	312.870	313.968	300.766	289.975	296.015	228.334	242.276	140.026	113.598	194.076	120.068	107.415	106.054	105.266	117.895	129.092	122.861	189.898	177.269	43.984
77.000	280.808	305.565	226.997	298.617	311.342	312.942	314.087	300.838	289.975	296.063	228.334	241.417	138.856	114.123	193.527	119.901	107.320	106.054	105.171	117.848	129.044	122.527	189.826	177.961	43.037
78.000	281.691	304.801	227.666	299.190	311.533	313.156	314.087	300.766	290.095	296.708	228.549	240.700	137.878	114.792	193.145	119.495	107.224	105.792	105.075	117.681	128.997	122.360	189.755	178.486	39.788
79.000	282.789	304.275	228.525	299.477	311.438	313.156	314.207	301.053	289.832	296.612	228.119	240.438	137.137	115.484	192.357	119.328	107.248	105.768	105.028	117.800	128.997	122.049	189.850	179.441	38.209
80.000	283.291	304.443	228.907	299.286	311.581	313.013	314.159	301.053	289.975	296.803	228.477	240.128	136.493	115.842	191.784	119.065	107.105	105.672	104.956	117.561	129.020	121.954	189.850	180.014	38.299
81.000	284.604	303.010	229.528	299.907	311.485	313.252	314.422	301.315	289.999	297.113	228.812	238.791	135.657	116.272	191.235	118.946	107.176	105.625	105.004	117.585	129.020	121.739	189.778	180.396	40.691
82.000	284.675	302.580	229.957	300.241	311.676	312.798	314.016	301.005	289.665	297.400	228.477	238.337	134.726	117.203	190.829	118.827	107.105	105.744	104.980	117.513	129.020	121.548	189.826	181.232	43.533
83.000	285.821	302.294	230.387	299.907	311.581	312.965	314.231	301.148	289.832	297.448	228.453	237.931	134.177	117.513	189.993	118.683	106.961	105.481	104.789	117.418	129.020	121.405	189.707	181.709	43.127
84.000	286.633	301.673	230.960	300.074	312.034	313.228	314.278	301.435	289.904	297.519	228.573	237.096	133.413	118.325	189.396	118.468	106.985	105.505	104.861	117.346	128.973	121.190	189.778	182.306	40.510
85.000	286.848	301.649	231.414	300.026	311.772	313.013	314.207	301.244	289.832	298.068	228.095	236.809	133.222	118.755	188.871	118.277	106.890	105.696	105.004	117.370	129.044	120.880	189.755	182.927	38.931
86.000	286.991	300.289	231.748	300.432	311.891	313.013	314.159	301.697	289.784	297.758	228.573	236.427	132.052	119.280	188.155	118.182	106.794	105.577	104.884	117.179	128.973	120.832	189.755	183.404	38.570
87.000	287.970	299.954	232.178	300.145	311.700	313.634	314.469	301.554	289.808	297.949	228.668	235.830	131.742	120.044	187.654	117.800	106.866	105.601	104.813	117.132	128.925	120.760	189.683	183.786	40.285
88.000	288.495	299.190	232.751	300.599	311.724	313.013	314.135	301.578	290.381	298.570	228.095	235.496	131.384	120.545	187.296	117.919	106.890	105.625	104.837	117.155	128.949	120.545	189.635	184.168	42.766
89.000	289.116	298.952	233.395	300.718	312.010	313.347	314.422	301.793	290.023	298.235	228.644	235.114	130.668	120.904	186.770	117.776	106.723	105.410	104.574	117.108	128.925	120.474	189.707	184.479	43.082
