-----------------------------------------------------
BloodHound 307 VOC Analyser V2017.1
RoboScientific Ltd 
Espace North
Wisbech Road
Littleport
Cambridgeshire, UK
CB6 1RA 
-----------------------------------------------------
Date = 21/04/2022
Time = 11:29:04
Data is protected by RoboScientific Limited
-----------------------------------------------------
Name of the experiment = "44b_Day 30"
-----------------------------------------------------
Repeat No. = 4/4
-----------------------------------------------------
Experimental Time (in sec) and Flow Profile :
-----------------------------------------------------
Baseline = 2.00
Absorb = 4.00
Pause = 1.00
Desorb = 5.00
Flush = 20.00
Wait = 5.00
Higher Flow (V) = 4.00
Medium Flow (V) = 3.00
Low Flow (V) = 1.00
-----------------------------------------------------
Total Profile Time = 37 in sec
-----------------------------------------------------
Acquired data point per second = 4
--------------------------------------------------
Total data point stored  = 128
-----------------------------------------------------
Acquired sensor responses from 24 sensors
-----------------------------------------------------

Data Points	 Sen-1	 Sen-2	 Sen-3	 Sen-4	 Sen-5	 Sen-6	 Sen-7	 Sen-8	 Sen-9	 Sen-10	 Sen-11	 Sen-12	 Sen-13	 Sen-14	 Sen-15	 Sen-16	 Sen-17	 Sen-18	 Sen-19	 Sen-20	 Sen-21	 Sen-22	 Sen-23	 Sen-24	Humidity (%r.h.)
0.000	303.559	264.646	249.032	303.798	313.228	313.801	314.875	302.819	290.310	302.294	228.406	223.010	116.272	154.852	169.963	115.102	105.935	105.266	104.407	116.105	128.686	116.463	189.946	196.726	39.653
1.000	303.297	264.216	249.510	303.774	313.013	313.849	314.804	302.724	290.166	302.557	228.525	222.557	116.153	155.090	169.963	115.102	105.815	105.219	104.383	116.200	128.782	116.487	189.922	196.845	40.781
2.000	303.488	263.691	249.414	303.703	313.252	313.944	314.756	302.676	290.262	302.389	228.621	222.390	115.962	155.592	169.796	114.983	105.887	105.266	104.359	116.081	128.877	116.535	190.065	196.821	41.458
3.000	303.464	263.643	249.892	304.013	312.822	313.873	314.828	302.533	290.166	302.485	228.716	222.270	115.890	156.021	169.581	115.007	105.959	105.290	104.431	116.153	128.806	116.391	189.922	197.012	40.691
4.000	303.846	263.070	250.011	303.846	312.942	314.016	315.019	303.201	290.357	302.366	228.310	222.175	115.938	156.356	169.390	114.959	105.887	105.219	104.311	116.200	128.686	116.248	189.946	197.084	39.743
5.000	303.726	262.569	250.130	303.559	312.918	313.968	314.947	302.843	290.119	302.270	228.453	222.390	115.962	156.857	169.152	115.007	105.959	105.147	104.359	116.105	128.782	116.320	189.874	197.131	39.337
6.000	304.013	262.330	250.369	303.679	312.679	313.801	315.281	302.986	290.286	302.676	228.382	221.793	115.771	157.191	169.009	114.983	105.983	105.147	104.168	115.986	128.710	116.368	189.922	197.322	39.563
7.000	303.344	262.187	250.345	304.252	313.085	313.801	314.732	302.580	290.142	302.485	228.477	222.151	115.651	157.669	168.961	114.864	105.935	105.123	104.264	116.009	128.830	116.391	189.993	197.203	40.555
8.000	303.631	261.542	250.608	303.846	312.822	313.634	314.613	302.795	290.238	302.461	228.597	221.840	115.818	157.836	168.937	114.935	106.030	105.123	104.288	116.129	128.877	116.439	189.898	197.442	41.458
9.000	303.941	261.494	250.321	303.631	313.061	313.777	314.851	302.652	289.951	302.533	228.453	221.912	115.580	158.289	168.674	114.840	105.983	105.099	104.311	116.105	128.734	116.177	189.874	197.442	40.916
10.000	301.817	281.978	250.083	303.655	313.013	313.777	314.947	302.962	290.238	301.578	228.143	251.969	117.633	136.159	168.722	114.840	105.839	105.147	104.407	116.272	128.639	116.893	190.351	165.809	39.788
11.000	267.200	303.416	247.385	302.413	312.607	313.514	314.374	301.458	290.715	287.564	226.185	282.765	150.148	117.084	171.969	116.033	106.197	105.601	104.479	117.251	128.089	130.047	191.617	138.140	36.314
12.000	229.623	314.589	239.149	300.217	312.034	312.440	314.111	299.572	291.145	248.173	225.565	299.286	189.778	105.696	180.134	118.659	106.818	106.317	104.837	119.137	127.851	170.990	192.882	121.572	34.915
13.000	256.791	320.533	229.766	296.827	311.056	311.414	313.896	297.066	291.145	221.005	224.371	309.623	162.682	99.107	191.450	122.049	107.678	107.272	105.266	121.787	127.684	198.134	193.646	111.426	43.578
14.000	276.869	325.189	236.165	292.554	310.363	310.292	313.085	294.153	290.882	237.382	223.798	315.400	140.838	95.096	183.165	126.275	108.489	108.561	105.720	124.747	127.994	181.065	194.338	105.505	51.655
15.000	293.294	327.958	246.549	287.540	309.432	308.668	312.631	291.288	290.333	251.730	223.535	319.865	125.416	91.945	170.083	131.336	109.420	109.635	106.341	127.349	128.448	166.144	194.911	100.754	49.354
16.000	304.514	329.892	256.887	281.667	308.024	307.546	312.034	287.946	289.402	263.500	222.795	323.374	114.410	89.773	158.337	136.684	110.590	111.187	107.057	130.692	129.140	153.968	195.317	97.627	39.157
17.000	312.727	331.038	265.171	275.389	306.615	305.947	310.936	283.911	288.614	273.288	222.509	325.260	107.033	88.292	149.408	143.321	111.879	112.787	108.060	134.607	130.214	145.159	195.890	95.431	29.095
18.000	318.552	331.945	272.309	268.847	305.183	304.228	310.053	279.948	288.137	280.903	222.222	326.764	100.754	87.576	141.339	150.220	113.383	114.434	109.277	139.191	131.074	137.734	195.962	93.855	31.351
19.000	321.775	333.258	278.468	262.545	303.726	302.031	308.406	274.601	286.872	286.776	222.055	328.435	96.553	87.314	134.631	156.499	114.935	116.535	110.590	144.419	132.196	131.814	196.248	91.993	43.037
20.000	325.881	333.282	283.219	255.574	302.222	300.265	307.069	269.516	285.750	291.217	221.864	329.008	94.332	85.165	129.474	162.945	116.773	118.612	112.023	149.767	133.389	126.943	196.463	91.611	52.647
21.000	327.791	334.547	286.872	249.510	300.599	297.519	305.063	263.882	284.293	295.466	221.936	329.557	92.375	85.260	125.248	169.558	118.540	120.927	113.765	154.828	134.344	122.933	196.296	90.775	51.339
22.000	328.579	334.571	290.310	243.064	298.164	295.180	303.058	258.462	283.744	297.877	222.031	330.178	90.823	85.141	121.500	175.789	120.880	123.768	116.081	160.510	135.251	120.163	196.773	90.608	40.014
23.000	330.059	333.807	293.150	237.764	295.323	291.646	299.931	253.616	283.267	300.265	221.984	330.847	89.605	86.096	119.113	181.614	123.315	126.514	118.779	165.571	136.159	118.588	196.893	89.916	29.005
24.000	329.844	334.523	294.798	232.607	293.509	289.951	297.758	250.202	281.787	301.148	221.864	331.443	89.247	84.926	116.964	186.794	125.702	129.116	121.238	169.319	136.923	116.988	197.012	89.749	30.043
25.000	330.059	334.284	296.708	229.002	290.978	287.636	295.204	247.361	281.452	302.079	221.673	331.085	89.152	85.260	115.269	190.972	127.898	131.241	123.935	172.160	137.615	116.582	196.869	90.417	41.999
26.000	330.226	334.786	296.803	227.857	289.569	287.110	293.914	247.313	280.784	301.148	221.626	330.059	89.534	85.857	114.720	191.903	129.450	131.766	125.487	172.351	137.782	117.179	197.012	89.510	52.557
27.000	330.942	334.762	298.140	228.071	289.546	287.373	293.174	248.006	281.285	300.814	221.721	330.584	89.367	84.783	114.052	192.166	129.904	131.503	125.893	171.826	137.639	118.158	197.012	89.653	52.918
28.000	330.512	333.902	297.352	228.024	288.973	287.588	293.007	248.006	281.691	300.814	221.602	330.894	89.080	85.046	114.410	191.593	130.047	131.026	126.227	171.109	137.496	117.991	196.773	89.940	41.638
29.000	330.608	334.857	297.758	228.597	288.996	287.755	292.768	248.650	281.906	299.835	221.530	331.467	89.391	84.807	114.004	191.378	130.095	131.074	126.394	170.513	137.185	119.161	196.893	89.247	29.817
30.000	331.181	335.024	298.450	228.095	288.161	286.657	292.028	247.791	281.596	300.145	221.864	330.942	88.507	84.855	113.885	191.975	130.668	131.885	127.111	171.253	137.281	118.731	196.463	88.841	28.869
31.000	329.987	335.096	299.047	226.042	286.943	285.439	290.357	248.674	281.285	298.522	221.721	330.107	89.796	85.905	113.407	193.598	132.339	133.628	128.973	170.202	137.281	119.423	196.582	89.868	39.157
32.000	328.149	334.929	300.050	226.305	286.323	285.511	290.119	253.974	282.479	293.318	221.912	328.340	92.112	85.977	112.691	194.052	132.960	133.485	129.188	165.595	136.374	125.320	196.415	91.038	50.346
33.000	324.592	334.093	299.286	226.735	286.466	286.490	291.193	259.537	284.222	285.081	222.294	326.191	95.240	86.406	112.763	193.383	132.936	132.315	128.185	159.507	135.347	134.273	196.057	93.163	53.144
34.000	321.966	333.688	299.405	228.167	287.564	288.185	292.673	265.409	284.819	274.863	223.392	323.398	97.770	86.335	113.097	191.402	131.742	130.859	126.394	154.016	133.962	144.443	195.245	95.645	42.360
35.000	318.552	332.733	298.522	230.936	288.376	289.474	294.344	269.325	285.797	262.998	223.750	321.631	101.471	86.263	113.837	188.418	130.525	129.140	124.556	148.859	132.673	155.997	194.768	98.462	31.486
36.000	314.302	332.494	298.140	234.565	289.617	291.217	296.612	273.670	286.848	250.154	224.371	317.119	104.980	87.146	114.649	184.479	128.973	127.397	122.646	144.968	131.933	168.889	194.243	101.709	29.591
37.000	309.002	331.849	296.827	238.576	291.241	292.673	298.355	277.227	287.636	236.928	224.872	313.658	110.137	88.889	115.102	180.205	127.493	125.750	120.474	141.411	131.288	181.852	193.503	104.884	38.074
38.000	302.103	331.396	295.371	243.231	292.864	294.272	300.169	280.307	288.400	223.917	224.992	310.292	116.893	89.056	117.036	175.836	126.203	124.270	118.827	138.283	130.763	194.744	193.336	109.206	48.812
39.000	295.084	329.748	293.914	247.457	294.559	296.135	301.888	282.909	288.495	220.957	225.230	306.042	124.556	89.510	118.445	171.539	124.437	122.575	116.988	135.586	130.525	198.373	192.977	113.049	51.023
40.000	285.630	329.462	292.315	252.160	296.517	297.663	303.368	285.320	288.543	231.199	225.183	302.533	134.631	90.918	120.211	166.932	122.718	120.999	115.604	133.461	130.119	187.869	192.739	117.012	42.992
41.000	273.503	328.149	290.333	255.956	297.352	299.238	304.968	287.469	289.235	240.557	226.042	299.071	146.472	91.348	122.861	162.491	121.453	119.519	114.219	131.527	129.856	178.224	192.548	121.118	34.509
42.000	261.160	327.003	287.683	259.823	298.856	300.766	305.994	289.140	288.901	248.698	225.923	294.774	159.053	92.375	125.320	158.456	119.972	117.872	112.978	129.737	129.713	169.749	192.357	124.914	31.531
43.000	248.316	325.499	285.129	263.643	299.692	302.175	307.355	290.596	289.522	256.218	226.353	290.978	170.990	93.163	128.471	154.684	118.659	116.559	111.879	128.018	129.522	162.587	192.023	128.471	36.856
44.000	236.618	324.926	282.025	267.200	301.363	303.440	308.215	291.814	289.283	262.282	226.544	287.063	182.497	94.953	131.193	150.984	117.370	115.055	110.924	126.705	129.498	156.642	191.951	132.267	45.473
45.000	226.735	323.685	278.468	270.853	302.294	304.347	308.764	292.888	289.665	267.319	226.544	284.102	192.381	96.027	134.822	147.857	116.296	114.028	110.256	125.774	129.402	151.724	191.808	135.896	48.722
46.000	220.289	322.348	275.460	273.765	303.297	305.541	309.432	294.225	289.211	271.402	226.520	281.047	199.662	96.720	139.047	144.849	115.365	113.240	109.468	124.795	129.355	147.475	191.545	138.952	43.082
47.000	221.411	321.249	271.402	276.272	304.204	306.448	310.124	294.989	289.546	275.126	226.782	277.895	197.967	98.510	143.225	142.127	114.553	112.452	108.943	123.816	129.211	143.894	191.545	142.103	36.765
48.000	226.018	320.462	267.343	278.373	305.254	307.331	310.554	295.514	289.617	277.967	227.069	275.007	192.906	99.513	147.427	139.787	113.694	111.617	108.633	123.171	129.307	140.909	191.402	144.896	33.652
49.000	231.438	319.698	263.094	281.238	306.042	308.167	311.008	296.326	289.355	280.593	227.236	272.213	188.179	100.157	151.796	137.305	112.954	110.972	108.060	122.431	129.188	138.092	191.330	146.830	37.758
50.000	236.332	318.385	258.510	283.410	306.663	308.406	311.127	296.946	289.832	283.219	227.140	269.229	182.974	101.542	156.714	135.037	112.094	110.160	107.606	122.026	129.188	135.777	191.282	150.148	44.030
51.000	241.417	317.621	253.831	285.463	307.212	309.074	311.724	297.233	289.641	285.272	226.926	266.388	178.630	102.425	161.655	133.246	111.664	109.588	107.391	121.381	129.331	133.747	191.044	153.061	46.376
52.000	245.809	316.212	249.462	287.373	307.928	309.695	312.154	297.519	289.402	287.230	227.284	264.144	174.117	103.166	166.884	131.527	110.972	109.229	107.057	121.095	129.283	131.861	191.068	155.544	42.360
53.000	249.462	315.902	244.998	288.782	308.071	310.363	312.464	298.164	289.951	288.543	227.451	261.685	169.987	104.288	171.539	129.880	110.519	108.824	106.842	120.593	129.164	130.501	191.020	157.836	37.713
54.000	253.879	314.923	240.915	290.071	308.716	310.435	312.440	298.498	289.737	289.474	227.307	259.489	166.287	105.075	176.147	128.567	110.208	108.418	106.651	120.283	129.188	129.450	190.948	160.128	35.682
55.000	257.006	314.135	237.454	291.097	309.050	311.103	312.774	298.546	289.235	290.668	227.594	257.675	162.419	105.768	179.919	127.516	109.802	108.060	106.388	119.829	129.092	128.352	191.044	162.061	38.480
56.000	260.181	312.918	234.398	292.028	309.074	310.912	312.846	298.904	289.522	291.479	227.713	255.621	159.507	106.460	183.476	126.371	109.397	107.797	106.221	119.758	129.164	127.493	190.996	163.852	43.623
57.000	263.070	312.273	231.652	293.174	309.504	310.984	312.846	299.095	289.713	292.458	227.379	253.688	156.523	107.678	186.508	125.583	109.253	107.558	106.126	119.495	129.188	126.800	190.853	165.571	44.661
58.000	265.935	311.676	229.552	293.771	309.862	311.199	313.061	299.453	289.951	292.721	227.546	252.542	153.777	108.131	189.038	124.604	108.847	107.606	106.197	119.352	129.140	126.036	190.829	167.242	42.315
59.000	268.250	311.032	227.785	294.774	309.910	311.557	313.491	299.644	289.665	293.437	227.809	250.871	151.748	108.967	191.306	124.294	108.656	107.224	105.768	119.041	129.211	125.511	190.805	168.650	38.615
60.000	269.850	310.268	226.973	295.013	310.172	311.748	313.133	299.644	289.760	294.034	227.833	249.558	149.599	109.468	192.810	123.577	108.537	107.129	105.696	118.922	129.188	124.867	190.686	170.011	36.856
61.000	271.736	309.504	226.687	295.848	310.244	311.987	313.634	299.787	289.760	294.153	227.713	248.483	147.594	110.351	193.670	122.885	108.298	106.985	105.648	118.850	129.092	124.413	190.709	171.133	38.615
62.000	273.694	308.716	226.209	296.206	310.363	311.963	313.467	300.241	289.784	294.965	227.785	246.908	146.138	111.235	194.314	122.431	108.083	106.818	105.553	118.683	129.116	124.079	190.686	172.399	42.450
63.000	275.126	307.713	226.185	296.803	310.506	312.058	313.514	300.575	289.928	295.514	227.857	245.666	144.443	111.664	194.410	122.097	108.227	106.818	105.577	118.564	129.044	123.577	190.614	173.616	44.571
64.000	276.630	307.761	227.045	296.922	310.650	311.891	313.729	300.551	289.928	295.609	227.737	244.544	143.154	112.261	194.314	121.548	107.964	106.651	105.457	118.421	129.068	123.171	190.542	174.547	42.676
65.000	278.230	306.758	227.164	297.209	310.769	312.106	313.920	301.053	290.166	296.087	227.642	243.995	141.602	113.049	193.765	121.214	107.892	106.603	105.410	118.277	129.044	122.861	190.757	175.669	39.382
66.000	279.375	305.875	227.857	297.663	310.865	312.058	313.562	300.527	289.928	296.397	227.976	242.682	140.337	113.622	192.977	120.689	107.797	106.436	105.338	118.254	129.092	122.670	190.518	176.433	37.713
67.000	280.521	305.541	228.644	298.307	311.151	312.488	313.753	300.551	290.071	296.636	227.904	241.966	139.334	114.386	192.118	120.569	107.558	106.412	105.410	117.967	129.140	122.408	190.614	177.436	38.660
68.000	281.309	305.135	229.456	298.498	311.151	312.345	313.753	300.623	289.808	296.755	227.952	241.154	138.427	114.983	191.282	120.235	107.511	106.365	105.219	117.991	129.164	122.288	190.518	178.295	41.954
69.000	282.551	304.395	230.101	298.737	311.223	312.369	313.896	300.718	289.689	296.970	227.642	240.629	137.543	115.675	190.399	120.020	107.534	106.269	105.099	117.872	128.949	121.882	190.518	179.083	43.894
70.000	283.840	303.846	231.032	298.737	311.557	312.583	313.992	300.814	289.808	297.257	227.809	239.507	136.541	116.320	189.946	119.686	107.415	106.174	105.171	117.895	129.092	121.715	190.471	179.752	42.766
71.000	284.246	302.962	231.294	298.999	311.533	312.655	313.992	300.909	289.760	297.376	228.095	239.053	135.657	116.845	188.919	119.543	107.248	106.221	105.147	117.800	129.020	121.453	190.351	180.587	39.563
72.000	285.081	302.509	232.154	299.214	311.533	312.822	314.278	301.029	289.784	297.591	228.000	238.695	135.037	117.346	188.060	119.423	107.248	106.054	105.123	117.657	128.949	121.214	190.280	181.184	38.435
73.000	285.583	301.649	232.798	299.358	311.652	312.870	313.968	300.933	289.904	297.854	227.666	237.764	133.915	117.848	187.296	119.232	107.129	105.839	104.908	117.728	129.211	121.118	190.375	181.566	38.751
74.000	286.418	300.957	233.491	299.501	311.533	312.989	314.087	301.148	290.119	298.164	227.928	236.714	133.151	118.707	186.555	118.922	107.224	105.911	104.956	117.490	129.068	120.856	190.375	182.163	41.638
75.000	287.158	300.265	233.849	299.883	311.461	312.679	314.087	301.220	289.928	298.283	227.689	236.642	132.697	119.352	185.744	118.755	107.081	105.983	105.028	117.681	129.044	120.545	190.304	183.070	43.488
76.000	287.731	299.811	234.613	300.217	311.724	313.109	314.135	301.363	290.166	298.665	227.857	236.356	132.100	119.853	185.028	118.421	107.057	105.935	104.908	117.490	128.949	120.378	190.351	183.476	42.360
77.000	288.256	299.190	235.424	300.360	311.605	312.894	314.087	301.435	290.095	298.379	227.976	235.329	131.384	120.402	184.407	118.301	106.938	105.887	104.908	117.490	128.997	120.163	190.328	184.049	39.698
78.000	288.973	298.426	236.141	300.456	311.748	312.989	314.231	301.315	290.166	298.713	228.262	234.828	130.883	121.023	183.810	118.206	107.009	105.983	105.004	117.442	129.020	120.140	190.256	184.311	38.751
79.000	289.593	298.379	236.165	300.503	311.939	313.156	314.302	301.554	290.023	298.689	228.024	234.660	130.429	121.500	183.237	118.039	106.890	105.863	105.004	117.275	128.973	119.972	190.208	184.693	38.931
80.000	289.546	297.663	237.287	301.196	312.058	313.180	314.255	301.172	289.546	298.737	228.119	234.470	129.928	122.049	182.712	117.943	106.770	105.863	104.813	117.179	128.925	119.805	190.328	185.266	41.097
81.000	290.071	296.946	237.334	300.599	311.867	313.324	314.326	301.387	290.166	299.119	228.071	233.491	129.474	122.766	182.091	117.967	106.842	105.815	104.717	117.251	129.020	119.590	190.137	185.744	42.947
82.000	290.524	296.349	238.194	300.909	312.106	313.013	314.541	301.673	289.928	299.262	228.501	233.347	128.830	123.219	181.638	117.824	106.794	105.768	104.813	117.251	128.925	119.590	190.137	186.102	42.315
83.000	290.811	295.968	238.576	301.100	312.034	313.013	314.326	301.363	289.808	299.596	227.928	232.942	128.400	123.912	181.256	117.585	106.651	105.839	104.932	117.227	129.068	119.471	190.184	186.579	39.924
84.000	291.312	295.418	239.435	301.172	311.939	312.965	314.207	301.267	290.023	299.763	227.809	232.798	128.304	124.580	180.587	117.418	106.723	105.768	104.861	117.108	128.925	119.256	190.160	186.985	39.202
85.000	291.742	294.750	239.578	300.957	312.082	313.419	314.278	301.554	289.856	299.620	228.453	232.273	127.922	125.010	180.038	117.537	106.603	105.648	104.765	117.012	129.092	119.232	190.113	187.272	39.021
86.000	292.339	294.058	240.175	301.100	311.963	313.133	314.350	301.817	289.951	299.334	228.310	231.605	127.397	125.750	179.704	117.299	106.556	105.577	104.670	116.917	129.092	119.280	190.137	187.582	40.285
87.000	292.554	293.604	240.462	301.339	311.915	313.037	314.589	301.697	290.429	300.002	228.024	231.461	127.111	126.012	179.298	117.322	106.651	105.529	104.550	117.060	128.877	119.041	190.113	188.107	42.405
88.000	293.294	293.389	241.035	301.339	312.345	313.133	314.493	301.769	289.928	299.978	228.071	231.366	126.896	126.753	178.988	117.132	106.460	105.553	104.741	117.036	128.853	118.874	190.089	188.251	42.541
89.000	293.413	292.482	240.939	301.315	312.416	313.514	314.493	301.626	289.975	300.074	228.262	230.745	126.251	127.349	178.367	117.203	106.556	105.505	104.598	116.941	128.877	118.827	190.184	188.680	40.330
