-----------------------------------------------------
BloodHound 307 VOC Analyser V2017.1
RoboScientific Ltd 
Espace North
Wisbech Road
Littleport
Cambridgeshire, UK
CB6 1RA 
-----------------------------------------------------
Date = 21/04/2022
Time = 12:00:51
Data is protected by RoboScientific Limited
-----------------------------------------------------
Name of the experiment = "44b_Day 36"
-----------------------------------------------------
Repeat No. = 4/4
-----------------------------------------------------
Experimental Time (in sec) and Flow Profile :
-----------------------------------------------------
Baseline = 2.00
Absorb = 4.00
Pause = 1.00
Desorb = 5.00
Flush = 20.00
Wait = 5.00
Higher Flow (V) = 4.00
Medium Flow (V) = 3.00
Low Flow (V) = 1.00
-----------------------------------------------------
Total Profile Time = 37 in sec
-----------------------------------------------------
Acquired data point per second = 4
--------------------------------------------------
Total data point stored  = 128
-----------------------------------------------------
Acquired sensor responses from 24 sensors
-----------------------------------------------------

Data Points	 Sen-1	 Sen-2	 Sen-3	 Sen-4	 Sen-5	 Sen-6	 Sen-7	 Sen-8	 Sen-9	 Sen-10	 Sen-11	 Sen-12	 Sen-13	 Sen-14	 Sen-15	 Sen-16	 Sen-17	 Sen-18	 Sen-19	 Sen-20	 Sen-21	 Sen-22	 Sen-23	 Sen-24	Humidity (%r.h.)
0.000	305.039	227.427	245.690	304.299	312.965	314.326	315.090	304.061	290.381	303.440	229.504	217.830	115.174	192.381	173.544	114.625	105.815	104.646	104.311	115.174	128.734	115.413	188.609	202.073	40.239
1.000	304.777	227.069	245.786	304.275	313.037	314.517	314.971	303.535	290.477	303.893	229.981	218.092	114.887	192.739	173.592	114.458	105.839	104.550	104.192	115.102	128.734	115.389	188.489	202.073	40.510
2.000	304.920	226.854	246.096	304.156	312.679	314.422	315.281	304.013	290.429	303.512	229.790	218.283	114.864	193.121	173.330	114.553	105.839	104.526	104.264	115.150	128.782	115.365	188.656	202.002	40.375
3.000	304.944	226.257	246.430	304.586	313.061	314.350	314.971	303.822	290.142	303.392	229.528	217.997	114.601	193.407	173.115	114.314	105.720	104.526	104.240	115.269	128.806	115.389	188.561	202.025	40.104
4.000	305.159	225.756	246.573	304.228	313.061	314.422	314.971	303.846	290.500	303.440	229.552	218.188	114.577	193.837	172.924	114.291	105.672	104.574	104.120	115.222	128.830	115.222	188.585	202.002	39.833
5.000	305.207	225.445	246.908	304.108	312.822	314.398	314.780	303.631	290.190	304.013	229.647	218.116	114.601	194.338	172.781	114.410	105.696	104.526	104.168	115.269	128.686	115.269	188.442	201.978	40.014
6.000	305.016	225.183	246.812	304.275	313.037	314.278	315.210	303.726	289.999	303.774	229.886	218.259	114.625	194.649	172.685	114.314	105.792	104.574	104.192	115.055	128.662	115.102	188.609	202.025	40.285
7.000	305.230	224.777	246.764	304.108	313.180	314.350	314.947	303.846	290.429	303.703	229.790	218.236	114.410	194.911	172.518	114.434	105.863	104.550	104.168	115.007	128.639	115.150	188.442	201.930	40.465
8.000	305.732	224.490	246.812	304.681	313.371	314.493	315.210	303.631	290.166	303.774	229.599	218.045	114.529	195.341	172.422	114.076	105.625	104.646	104.216	115.246	128.877	115.222	188.585	201.906	40.285
9.000	305.398	224.085	247.242	304.395	312.751	314.541	315.353	303.703	290.453	303.750	229.552	218.236	114.458	195.604	172.184	114.171	105.768	104.574	104.335	115.150	128.782	115.126	188.513	201.930	39.879
10.000	302.700	260.921	246.621	304.299	313.037	314.493	314.851	303.464	290.429	302.533	229.384	251.778	116.296	156.403	172.327	114.338	105.792	104.693	104.168	115.269	128.448	115.842	188.823	166.287	39.969
11.000	260.587	293.604	242.586	302.580	312.488	313.682	314.565	302.461	290.882	285.010	228.048	286.036	156.021	125.392	176.242	115.747	106.221	105.052	104.311	116.200	127.994	132.291	190.686	133.628	37.848
12.000	240.557	309.838	233.276	299.811	311.891	312.727	314.517	299.859	291.002	238.146	226.305	303.177	178.439	109.802	186.914	118.683	106.794	105.983	104.717	119.089	127.660	180.372	191.808	118.421	32.299
13.000	268.179	318.982	232.894	295.609	310.602	311.700	313.634	296.564	290.978	231.175	225.732	313.228	151.581	100.778	186.412	122.622	107.940	106.985	105.195	122.193	127.612	187.319	192.834	108.800	37.442
14.000	288.137	324.425	247.027	290.524	309.432	310.292	313.443	293.103	290.811	249.558	224.729	318.623	131.384	95.502	171.396	128.304	108.991	108.131	105.696	125.463	128.066	168.865	193.670	102.425	48.451
15.000	301.673	327.242	258.391	284.222	308.477	309.217	312.369	289.426	289.784	263.165	224.443	323.422	117.060	91.706	157.000	134.344	110.471	109.683	106.460	129.188	128.686	154.183	194.362	98.033	52.918
16.000	311.605	329.916	268.585	276.558	306.472	307.212	311.915	285.010	289.235	274.816	223.249	325.785	107.081	89.749	146.138	141.506	111.879	111.259	107.487	133.819	129.641	143.034	194.744	95.574	44.932
17.000	317.859	331.682	276.439	268.274	304.299	305.111	310.101	279.566	288.304	283.697	223.583	327.480	100.492	88.412	137.328	149.408	114.052	113.527	108.728	138.928	130.787	133.915	195.556	93.950	33.066
18.000	323.231	332.756	282.813	261.136	302.557	303.297	308.740	273.455	287.110	290.119	222.700	329.128	96.481	87.409	131.408	157.669	116.272	115.580	110.160	145.207	131.885	128.233	195.580	92.279	28.193
19.000	326.263	334.213	287.851	253.592	300.217	300.480	306.806	267.057	285.511	295.609	222.819	329.581	93.688	86.144	125.583	165.714	118.779	118.325	112.046	151.796	133.246	122.766	195.651	91.133	35.908
20.000	328.841	334.380	291.861	245.547	297.257	297.090	304.466	260.133	284.079	300.480	222.700	331.229	90.871	86.168	121.333	173.449	121.572	121.262	114.577	158.886	134.464	118.134	195.436	89.176	48.857
21.000	329.725	334.452	294.583	238.146	294.225	294.392	301.697	253.258	283.195	303.798	222.700	332.231	89.009	85.165	117.251	180.826	124.795	124.699	117.466	165.857	135.801	114.267	196.081	89.032	54.497
22.000	331.778	334.857	297.782	231.318	291.312	290.453	298.068	246.311	281.500	306.639	222.628	331.897	88.078	85.117	115.150	187.988	127.851	127.851	120.736	172.995	137.424	111.139	196.129	88.937	46.105
23.000	332.303	335.502	299.954	226.472	287.588	286.991	294.225	239.483	279.590	309.408	222.581	333.377	87.648	84.401	113.097	193.741	131.861	132.148	124.747	179.799	138.880	108.537	196.033	88.507	33.066
24.000	333.258	335.717	301.244	224.872	283.577	282.956	289.784	233.682	278.253	312.607	222.366	333.115	86.812	84.783	111.426	194.386	136.087	135.896	129.498	186.675	140.456	106.484	196.081	87.027	27.877
25.000	333.520	335.239	303.440	226.520	279.543	279.041	285.105	228.477	277.155	313.729	222.652	333.497	85.810	84.974	110.017	191.235	140.241	139.644	134.392	191.617	141.960	105.052	196.033	87.624	35.276
26.000	333.879	335.287	303.583	227.236	276.105	277.298	281.906	227.666	276.511	314.087	222.795	333.592	86.335	84.473	109.420	190.877	143.345	141.196	137.424	192.810	142.700	104.479	196.009	87.672	48.587
27.000	333.926	335.001	304.729	227.116	275.747	277.657	281.094	227.928	276.439	313.395	222.294	333.807	85.953	83.804	109.468	190.757	144.085	140.814	138.379	192.166	142.676	105.219	196.439	87.099	54.542
28.000	334.475	335.860	304.801	227.188	275.532	278.492	280.474	228.668	276.511	312.918	222.724	333.711	85.714	83.685	109.253	191.282	144.443	140.384	138.928	191.760	142.509	104.956	196.176	87.481	46.240
29.000	334.714	336.481	304.681	226.544	274.911	278.946	280.211	228.597	277.179	312.655	222.437	332.661	85.953	83.542	109.731	191.593	144.634	140.241	139.286	191.497	142.390	106.006	196.081	86.979	33.201
30.000	335.239	336.194	305.469	228.692	273.574	276.964	278.062	227.666	276.367	313.825	222.581	333.807	85.093	84.306	109.062	189.349	145.684	141.697	141.029	192.595	142.819	104.383	196.153	86.884	27.741
31.000	334.213	336.242	305.780	233.085	270.900	273.526	274.481	224.634	274.481	316.188	222.628	334.093	84.616	83.780	108.298	184.479	148.788	145.517	145.087	194.983	144.109	102.975	196.224	87.146	34.961
32.000	334.929	336.099	306.496	237.645	267.081	269.659	269.802	224.037	273.216	315.759	222.557	333.688	85.093	84.329	107.940	180.038	152.679	149.194	149.814	194.983	145.732	102.258	195.795	86.645	48.271
33.000	334.547	335.884	307.021	239.555	263.858	267.486	266.197	224.132	273.813	314.278	222.915	331.921	86.478	84.329	107.009	177.818	155.639	151.748	153.037	195.245	145.350	103.834	196.129	87.672	54.633
34.000	333.067	336.170	308.215	241.130	262.354	267.391	265.720	227.236	275.317	311.485	222.867	332.207	87.528	84.950	106.794	176.887	157.979	151.724	153.730	192.858	143.607	107.916	195.818	87.982	47.413
35.000	331.324	335.406	308.215	239.984	261.924	268.991	267.534	232.607	277.680	306.567	222.533	329.892	88.841	84.282	106.603	177.842	157.788	150.148	151.963	187.033	141.077	113.049	195.818	89.725	34.464
36.000	329.008	335.072	308.143	237.501	263.404	270.972	270.208	240.080	279.805	300.265	223.488	327.767	90.465	85.428	107.081	179.775	156.499	148.024	149.265	179.298	138.761	118.803	195.317	90.895	27.967
37.000	326.693	334.141	308.215	234.637	265.362	273.407	273.598	247.886	281.763	292.434	223.655	326.144	92.637	85.022	107.152	182.783	154.207	145.350	145.517	171.444	136.994	125.989	194.625	92.948	33.923
38.000	324.329	333.998	307.331	230.841	267.654	276.200	277.442	254.929	283.744	283.219	224.180	323.565	95.144	85.451	107.534	186.341	151.605	142.628	141.864	164.186	135.132	135.251	194.267	95.120	46.285
39.000	321.345	333.353	307.260	227.045	270.686	279.017	281.118	261.375	285.201	273.144	224.849	320.796	98.534	85.857	107.749	190.328	148.501	139.477	138.069	158.027	133.938	145.063	193.718	98.439	53.053
40.000	317.454	333.138	306.663	223.870	273.574	281.787	284.675	266.675	286.561	262.903	225.589	317.358	102.282	87.027	107.821	194.219	145.493	137.042	134.464	152.393	132.721	155.902	192.930	102.258	47.052
41.000	311.867	332.947	305.780	222.843	276.726	284.723	288.591	271.545	287.039	250.775	225.541	313.634	107.129	87.385	108.847	196.248	142.390	134.225	130.811	147.331	131.814	168.054	192.643	105.505	36.269
42.000	306.066	330.751	305.517	225.207	279.829	286.943	291.432	275.389	287.421	238.576	225.923	309.361	113.455	88.507	110.113	194.052	139.262	131.647	127.397	143.130	131.145	180.205	192.476	109.874	29.817
43.000	298.140	330.727	303.607	229.504	282.742	289.569	294.487	278.826	288.209	226.711	226.185	306.185	121.047	88.937	110.781	189.253	136.397	129.498	124.341	139.620	130.668	191.497	192.046	114.195	34.013
44.000	289.426	329.462	302.915	235.162	285.368	291.766	297.615	282.025	288.614	218.283	226.902	301.530	129.832	89.773	111.975	183.715	133.318	126.872	121.715	136.708	130.214	201.047	191.784	118.349	44.526
45.000	278.659	329.319	301.578	240.223	288.495	294.058	299.883	284.651	288.686	227.475	226.854	297.328	140.289	91.086	113.455	178.558	131.145	125.201	119.495	134.273	130.190	192.070	191.641	122.360	50.391
46.000	268.298	327.576	299.859	245.595	290.596	295.848	301.888	287.015	289.331	237.024	227.260	293.389	152.106	92.088	115.317	172.995	128.471	123.124	117.275	132.052	129.784	182.760	191.187	126.562	46.150
47.000	256.218	326.430	298.474	251.181	292.649	297.734	303.512	288.734	289.402	245.356	227.355	289.951	163.351	93.019	116.821	167.719	126.203	120.904	115.532	130.095	129.713	173.950	191.115	129.904	38.074
48.000	245.523	325.642	295.514	255.550	294.607	299.572	305.063	290.071	289.426	252.088	227.331	286.442	174.380	93.927	119.185	162.634	124.150	119.352	113.980	128.519	129.498	166.550	190.972	133.556	32.659
49.000	236.833	324.425	292.936	260.611	296.827	301.244	306.472	291.623	289.450	258.820	227.880	283.100	182.449	94.977	121.715	158.051	122.240	117.537	112.787	127.087	129.474	159.817	190.709	136.732	35.863
50.000	228.955	323.374	289.713	265.171	298.212	303.082	307.642	292.840	289.784	265.219	228.215	279.280	191.020	96.457	124.461	152.846	120.283	115.389	111.569	125.917	129.259	153.443	190.733	140.862	43.262
51.000	222.724	321.894	286.418	269.707	300.241	304.848	308.955	294.463	289.450	270.471	227.713	274.816	196.893	97.412	128.185	148.835	118.468	113.861	110.662	125.034	129.498	148.668	190.566	144.467	47.504
52.000	219.787	320.939	283.171	273.574	301.435	305.994	309.241	294.702	289.498	274.481	228.143	271.927	200.330	98.821	132.148	145.111	117.060	112.619	109.635	123.768	129.379	144.777	190.495	148.024	44.751
53.000	221.315	320.008	278.707	276.797	302.939	307.331	310.220	295.657	289.665	277.704	228.262	269.086	198.564	99.943	136.588	141.817	116.057	111.617	108.943	122.909	129.307	141.315	190.208	150.745	39.292
54.000	226.902	318.552	274.267	279.399	303.703	308.095	310.697	296.636	290.023	280.617	228.382	266.078	192.595	100.730	140.981	138.761	114.840	110.686	108.394	122.408	129.235	138.618	190.232	153.610	35.096
55.000	233.300	317.955	269.635	282.264	304.920	308.573	311.270	296.922	289.713	282.503	228.310	263.810	186.245	102.139	145.469	136.469	113.932	109.993	107.988	121.596	129.235	136.350	190.089	156.021	36.856
56.000	239.746	316.833	264.669	284.079	305.612	309.217	311.318	297.424	289.808	284.365	228.430	261.232	179.608	102.975	150.507	134.392	113.169	109.253	107.534	121.071	129.140	134.488	189.898	158.218	42.180
57.000	246.072	316.164	260.396	286.418	306.711	310.124	311.819	297.997	289.569	286.012	228.262	259.035	174.237	104.120	155.257	132.458	112.357	108.776	107.272	120.689	129.283	132.864	189.778	160.605	45.338
58.000	250.871	314.804	256.123	287.612	306.949	310.817	312.225	298.641	290.190	287.803	228.406	256.791	168.818	105.052	159.865	130.930	111.617	108.322	106.961	120.354	129.164	131.503	189.850	162.945	43.714
59.000	255.025	313.777	252.016	289.283	307.904	311.056	312.583	298.570	289.737	288.829	228.406	254.738	164.377	106.197	164.282	129.498	111.163	107.892	106.651	119.877	129.307	130.190	189.731	165.022	39.518
60.000	259.346	312.655	248.006	290.524	308.191	311.079	312.655	298.928	289.546	289.689	228.549	252.566	160.605	107.439	168.292	128.280	110.614	107.534	106.365	119.590	129.164	129.164	189.683	167.027	36.720
61.000	262.712	311.700	244.520	291.479	308.525	311.557	312.846	299.214	289.689	290.691	228.931	250.823	157.000	108.418	172.255	127.230	110.208	107.272	106.317	119.328	129.068	128.209	189.683	168.794	37.893
62.000	265.362	310.411	241.154	292.339	308.883	311.772	312.965	299.668	289.951	291.360	228.716	249.438	153.944	109.468	175.765	126.275	109.826	107.105	106.126	118.922	129.068	127.182	189.635	170.560	41.819
63.000	268.059	309.050	238.027	293.389	309.098	312.106	313.061	300.074	289.999	292.458	228.812	247.313	151.414	110.351	179.011	125.296	109.564	106.770	105.935	118.827	129.116	126.609	189.683	172.160	44.571
64.000	270.160	308.620	235.639	293.867	309.575	312.154	313.276	300.121	289.904	293.198	228.740	246.358	149.098	111.641	181.996	124.628	109.229	106.723	105.744	118.636	129.116	125.917	189.516	173.735	43.353
65.000	273.025	307.570	233.276	294.989	310.053	312.345	313.538	300.408	289.737	293.628	228.835	244.544	147.140	112.667	184.860	123.768	109.062	106.603	105.553	118.421	129.020	125.320	189.564	175.430	39.788
66.000	274.529	305.684	230.865	295.275	309.719	312.201	313.586	301.029	290.047	293.843	229.002	243.207	145.040	113.550	187.176	123.267	108.728	106.388	105.601	118.373	129.188	124.938	189.396	176.624	37.893
67.000	276.606	304.872	229.384	296.063	310.363	313.109	313.873	300.957	289.808	294.440	228.716	241.990	143.440	114.911	188.991	122.742	108.656	106.078	105.481	118.254	129.235	124.389	189.540	177.746	38.254
68.000	277.991	303.822	227.976	296.564	310.626	312.774	313.896	301.100	289.808	295.132	229.265	240.605	142.103	115.890	190.662	122.240	108.513	106.174	105.266	117.919	129.020	123.959	189.444	179.083	41.097
69.000	279.423	302.509	227.188	296.779	310.435	312.965	314.087	301.220	289.975	295.562	228.979	239.555	140.671	117.084	192.166	121.835	108.370	106.126	105.362	117.728	128.997	123.410	189.349	180.277	43.849
70.000	280.736	301.387	225.899	297.567	310.697	313.133	314.040	301.244	289.641	295.633	229.098	238.409	139.286	118.468	193.431	121.453	108.012	105.839	105.290	117.681	129.068	123.100	189.325	181.470	42.902
71.000	281.596	300.026	225.732	297.710	310.841	313.037	313.896	301.530	289.880	296.111	228.979	237.334	138.283	119.638	194.505	120.880	107.892	105.863	105.338	117.585	128.973	122.766	189.325	182.282	40.194
72.000	282.193	299.429	225.016	297.949	310.769	312.846	314.016	301.458	289.880	296.421	228.907	236.308	136.923	120.856	194.983	120.641	107.916	105.744	105.004	117.490	129.044	122.360	189.325	183.380	38.751
73.000	283.697	297.901	224.992	298.331	310.865	313.109	314.111	301.626	290.238	296.636	228.835	235.472	136.159	122.169	195.436	120.211	107.701	105.696	105.099	117.299	129.020	122.240	189.349	184.168	38.886
74.000	285.033	297.090	225.183	298.856	311.270	313.443	314.207	301.554	289.832	297.233	228.883	234.804	135.228	123.291	195.508	119.972	107.701	105.553	104.956	117.251	129.164	121.906	189.373	185.195	40.781
75.000	285.965	295.395	225.254	298.856	311.199	313.347	314.302	301.649	289.975	297.448	229.384	233.968	134.106	124.508	195.389	119.805	107.534	105.625	105.052	117.251	128.949	121.596	189.277	185.911	42.992
76.000	285.988	294.511	225.445	298.904	311.199	313.061	314.064	301.578	290.214	297.830	229.337	232.894	133.604	125.869	195.269	119.447	107.534	105.386	104.837	116.869	129.044	121.333	189.277	186.794	42.270
77.000	287.206	292.983	225.994	299.549	311.223	313.276	314.231	302.222	290.166	297.973	229.241	232.106	132.697	126.753	194.792	119.352	107.558	105.434	104.861	116.893	129.020	121.190	189.301	187.510	40.014
78.000	287.731	292.005	226.209	299.572	311.533	313.586	314.541	301.864	289.975	297.973	229.313	231.557	131.933	128.161	194.481	119.065	107.296	105.362	104.861	116.869	128.901	120.760	189.086	188.060	39.157
79.000	288.400	290.859	227.093	299.740	311.533	313.658	314.517	302.007	290.142	298.522	229.122	231.199	131.503	128.997	193.980	118.850	107.296	105.266	104.765	116.821	128.949	120.641	189.158	188.823	39.021
80.000	289.164	289.784	227.069	299.931	311.891	313.753	314.493	301.936	290.023	298.403	229.337	230.387	130.596	130.190	193.479	118.707	107.105	105.338	104.884	116.773	128.901	120.617	189.205	189.301	40.691
81.000	289.378	288.877	227.857	300.050	311.748	313.491	314.016	301.912	289.832	298.904	228.955	229.408	130.286	131.384	192.882	118.468	107.224	105.243	104.813	116.726	129.044	120.259	189.253	189.874	42.495
82.000	290.357	287.182	228.382	300.694	311.939	313.801	314.469	302.055	290.142	298.856	229.647	229.026	129.593	132.530	192.309	118.397	107.176	105.290	104.765	116.606	128.973	120.140	189.182	190.518	41.954
83.000	290.644	285.917	228.979	300.480	311.700	313.873	314.541	302.222	290.095	298.785	229.313	229.002	129.044	133.628	191.784	118.182	107.081	105.290	104.693	116.654	128.949	120.116	189.110	190.948	40.149
84.000	291.288	284.699	229.146	300.456	311.748	313.634	314.278	302.342	289.784	298.808	229.480	228.430	128.495	135.037	190.996	117.991	107.009	105.314	104.741	116.511	128.973	119.877	189.086	191.545	39.157
85.000	291.670	283.529	229.886	301.100	311.891	313.968	314.613	302.342	289.880	298.976	228.955	228.000	128.280	136.206	190.686	117.895	107.033	105.147	104.646	116.582	128.901	119.614	189.182	191.903	39.066
86.000	291.957	281.858	229.886	301.124	312.034	313.873	314.302	302.103	289.975	299.381	229.504	227.140	127.588	137.543	189.969	117.776	106.842	105.243	104.622	116.463	128.949	119.471	189.158	192.452	40.600
87.000	292.363	280.975	230.984	300.981	311.987	313.849	314.446	302.366	290.214	299.477	229.337	226.997	127.302	138.737	189.492	117.776	106.818	105.099	104.550	116.320	128.901	119.543	189.110	192.858	42.089
88.000	292.864	279.901	230.841	300.981	312.010	313.825	314.469	302.676	290.214	299.501	229.170	226.090	126.776	140.074	189.134	117.585	106.866	105.099	104.574	116.320	128.997	119.280	189.110	193.097	41.683
89.000	293.843	278.397	231.485	301.076	312.154	313.825	314.732	302.771	290.071	299.668	229.790	226.138	126.323	141.506	188.632	117.585	106.938	105.075	104.526	116.248	128.949	119.089	189.110	193.646	40.104
