-----------------------------------------------------
BloodHound 307 VOC Analyser V2017.1
RoboScientific Ltd 
Espace North
Wisbech Road
Littleport
Cambridgeshire, UK
CB6 1RA 
-----------------------------------------------------
Date = 21/04/2022
Time = 11:43:28
Data is protected by RoboScientific Limited
-----------------------------------------------------
Name of the experiment = "44b_Day 35"
-----------------------------------------------------
Repeat No. = 4/4
-----------------------------------------------------
Experimental Time (in sec) and Flow Profile :
-----------------------------------------------------
Baseline = 2.00
Absorb = 4.00
Pause = 1.00
Desorb = 5.00
Flush = 20.00
Wait = 5.00
Higher Flow (V) = 4.00
Medium Flow (V) = 3.00
Low Flow (V) = 1.00
-----------------------------------------------------
Total Profile Time = 37 in sec
-----------------------------------------------------
Acquired data point per second = 4
--------------------------------------------------
Total data point stored  = 128
-----------------------------------------------------
Acquired sensor responses from 24 sensors
-----------------------------------------------------

Data Points	 Sen-1	 Sen-2	 Sen-3	 Sen-4	 Sen-5	 Sen-6	 Sen-7	 Sen-8	 Sen-9	 Sen-10	 Sen-11	 Sen-12	 Sen-13	 Sen-14	 Sen-15	 Sen-16	 Sen-17	 Sen-18	 Sen-19	 Sen-20	 Sen-21	 Sen-22	 Sen-23	 Sen-24	Humidity (%r.h.)
0.000	299.740	270.638	239.316	302.939	312.846	314.446	315.042	302.676	290.142	300.647	228.788	226.233	120.140	149.003	179.990	115.484	106.054	104.813	104.407	115.842	128.758	118.301	189.444	192.977	40.781
1.000	299.310	269.850	239.722	303.034	312.464	314.040	314.637	303.034	290.477	300.981	228.859	225.971	120.068	149.576	179.775	115.389	106.245	104.861	104.431	115.986	128.639	118.230	189.420	193.359	41.683
2.000	299.978	269.038	239.793	303.440	312.822	314.159	315.090	302.652	290.119	300.838	228.788	225.947	119.877	150.483	179.465	115.317	105.959	104.646	104.264	115.866	128.686	118.134	189.396	193.503	41.999
3.000	299.572	268.322	240.462	303.201	312.774	314.207	314.613	302.843	290.238	300.981	228.812	225.541	119.638	150.960	179.059	115.269	106.054	104.670	104.359	115.747	128.615	117.872	189.420	193.718	39.833
4.000	299.763	267.797	240.509	303.392	312.989	314.302	314.756	303.010	290.286	300.790	229.026	225.159	119.590	151.581	178.797	115.222	105.983	104.598	104.288	115.866	128.782	118.015	189.444	193.837	39.247
5.000	300.193	267.248	240.844	303.464	312.607	314.111	314.851	303.058	289.880	300.981	229.241	225.207	119.447	152.130	178.653	115.078	106.078	104.789	104.192	115.771	128.782	117.895	189.396	194.004	39.112
6.000	299.859	266.746	241.345	303.344	312.631	314.207	314.708	302.580	290.190	301.220	228.979	225.135	119.447	152.846	178.200	115.150	105.959	104.789	104.264	115.818	128.782	117.895	189.396	194.123	40.239
7.000	300.312	266.245	241.488	303.392	312.631	313.992	314.780	302.795	290.500	301.458	228.979	225.111	119.376	153.085	177.961	115.222	106.102	104.741	104.407	115.771	128.782	117.728	189.420	194.362	41.458
8.000	300.599	266.317	241.703	303.368	312.870	314.183	314.851	302.915	290.238	301.172	228.931	224.920	119.280	153.658	177.842	115.150	105.815	104.622	104.311	115.890	128.686	117.728	189.277	194.338	41.819
9.000	300.384	265.553	241.441	303.488	312.918	314.111	314.684	303.010	289.999	300.838	228.979	224.944	119.137	154.350	177.722	115.078	105.935	104.670	104.168	115.747	128.710	117.704	189.325	194.505	40.420
10.000	297.973	284.699	241.751	303.488	312.965	313.896	314.780	302.939	290.572	300.551	228.692	255.168	120.832	134.488	177.698	115.055	106.030	104.717	104.335	115.914	128.424	118.182	189.564	163.351	39.427
11.000	262.616	304.848	238.814	302.318	312.201	313.777	314.684	301.458	290.835	286.179	226.997	285.415	157.549	115.413	180.444	116.368	106.293	105.147	104.335	117.108	128.042	132.888	190.996	135.347	35.908
12.000	239.698	315.782	231.485	299.763	311.461	312.655	314.469	299.405	290.763	244.616	225.851	301.936	180.014	105.004	188.871	118.779	106.818	105.911	104.693	119.352	127.755	176.338	192.190	119.280	37.532
13.000	265.672	321.488	230.984	296.684	310.984	312.178	313.896	296.684	291.026	226.138	225.207	311.772	153.944	98.224	188.322	122.217	107.558	106.985	105.362	122.193	127.755	192.930	193.025	109.778	47.413
14.000	283.959	325.690	242.563	292.052	309.814	310.793	313.395	293.652	291.050	242.181	224.180	317.549	134.058	94.141	174.929	126.585	108.680	108.060	105.839	125.177	128.089	175.263	193.718	103.882	51.880
15.000	298.594	328.674	253.759	286.752	309.122	309.384	312.655	290.286	289.904	256.481	223.822	321.130	119.495	91.706	161.775	131.479	109.778	108.943	106.341	128.448	128.686	160.772	194.481	99.250	45.925
16.000	309.170	329.820	263.547	280.521	306.973	308.047	311.796	286.585	289.546	268.322	223.512	324.090	109.635	90.083	151.342	137.400	111.020	110.519	107.033	132.005	129.426	149.886	194.935	96.911	33.787
17.000	316.117	332.160	271.211	274.386	306.018	306.090	310.721	282.670	288.782	276.893	222.915	327.075	102.998	88.818	143.249	144.037	112.763	112.548	108.298	136.445	130.262	141.363	194.911	94.714	28.915
18.000	321.035	332.184	278.062	268.059	304.347	304.419	309.313	277.513	287.564	284.246	222.867	327.648	98.534	87.481	136.206	150.889	114.601	114.147	109.444	141.196	131.265	134.177	195.078	92.804	34.554
19.000	324.568	332.947	282.861	261.136	302.246	302.413	308.215	272.357	286.824	289.689	222.676	329.796	94.905	86.693	130.405	157.597	116.439	116.320	111.115	146.424	132.220	128.328	195.341	91.229	47.774
20.000	327.266	333.831	286.991	254.523	300.503	300.169	306.233	266.723	285.583	294.010	222.533	329.916	92.757	85.953	126.060	164.114	118.564	118.659	113.145	152.249	133.533	123.959	195.842	91.038	54.091
21.000	328.961	334.595	290.405	247.695	298.235	297.567	304.108	260.706	284.270	298.235	222.390	330.751	90.584	86.454	122.288	170.513	120.808	121.071	114.840	157.979	134.655	119.829	195.962	90.322	48.000
22.000	330.775	334.380	293.318	241.130	295.824	294.989	301.482	255.120	282.646	301.339	222.604	331.897	89.558	85.666	118.946	177.603	123.553	124.055	117.609	164.186	135.777	116.153	195.699	89.128	35.231
23.000	330.369	335.693	295.466	235.353	292.697	291.241	298.498	248.961	281.882	304.490	222.604	332.303	87.887	85.117	116.415	183.929	126.347	127.158	120.331	170.465	136.755	113.670	195.938	90.011	27.741
24.000	332.040	335.192	297.376	230.172	290.166	288.256	295.299	243.661	280.641	306.949	222.199	332.016	87.481	85.022	114.720	189.611	129.570	130.381	123.744	176.505	138.092	111.115	195.818	88.149	32.750
25.000	332.255	335.550	299.310	226.329	286.848	285.224	291.479	237.597	278.946	308.764	222.676	332.351	86.764	85.069	113.192	193.789	132.578	133.580	127.779	182.091	139.620	109.778	196.344	88.889	45.022
26.000	333.091	335.693	300.384	225.087	284.556	283.816	288.829	236.284	278.588	308.883	222.270	332.184	86.645	84.974	112.787	194.840	134.702	134.917	130.286	183.571	140.122	109.468	196.224	87.624	54.272
27.000	332.828	335.765	299.453	224.849	283.768	283.959	288.280	236.714	279.137	308.024	222.294	332.279	86.693	84.544	112.261	194.720	135.442	134.702	131.241	183.261	140.313	110.089	196.296	88.674	50.752
28.000	332.971	335.812	300.193	224.801	283.243	284.270	287.946	237.310	279.208	307.761	222.342	331.849	86.406	84.329	112.381	194.768	135.824	134.440	131.599	182.616	139.907	110.519	196.200	87.624	39.157
29.000	333.425	335.335	300.551	224.992	283.434	284.532	287.278	237.597	279.399	307.618	222.604	332.733	86.597	84.544	112.476	194.816	135.753	134.225	131.933	182.187	139.764	111.139	196.176	87.743	28.644
30.000	334.046	335.979	301.530	224.562	282.789	283.601	286.179	236.881	278.731	309.575	222.318	332.040	85.571	85.069	111.521	195.150	136.588	135.204	132.936	183.165	140.074	109.110	196.057	88.101	30.223
31.000	334.404	336.505	301.840	224.323	280.378	280.760	283.124	233.180	277.537	310.793	222.437	333.162	85.260	85.284	111.354	194.649	138.761	137.997	136.183	187.319	141.459	107.439	196.296	86.860	40.510
32.000	334.070	335.574	302.748	226.591	277.561	277.537	279.590	228.692	276.129	313.180	222.628	332.828	85.141	84.759	110.519	191.736	141.459	141.411	139.907	191.282	142.700	105.505	196.153	87.266	52.828
33.000	335.120	336.361	303.512	229.790	274.792	274.147	275.747	225.589	274.625	313.801	222.557	332.661	84.831	84.234	109.492	187.606	144.777	144.538	143.464	194.290	144.109	104.192	196.009	87.839	52.377
34.000	334.475	336.218	304.108	233.371	271.235	270.518	271.712	224.371	273.813	314.278	222.342	332.255	85.929	84.377	108.728	184.049	148.239	147.833	147.618	194.983	145.254	104.240	196.200	87.576	41.052
35.000	333.282	336.385	304.896	235.520	268.561	269.516	269.062	225.612	274.314	312.488	222.509	331.897	86.812	84.353	108.871	182.211	151.056	149.504	150.292	194.362	144.849	106.245	196.296	87.887	29.366
36.000	331.754	335.024	305.803	235.377	267.677	269.778	269.134	229.599	275.962	308.453	222.628	331.491	87.170	84.497	108.251	182.258	152.345	149.003	150.172	190.208	142.795	109.874	196.200	88.722	28.779
37.000	331.014	335.860	305.827	233.968	267.749	270.996	270.757	235.257	277.848	303.440	222.103	329.987	88.865	84.926	107.821	183.237	151.844	147.427	148.621	184.216	140.838	115.126	195.818	89.964	37.126
38.000	329.414	335.788	305.087	232.034	269.134	273.001	273.216	242.181	280.068	297.495	222.986	328.316	90.346	84.855	108.274	185.410	150.507	145.636	146.162	177.675	138.856	121.095	195.317	91.850	48.993
39.000	327.839	333.998	305.851	229.026	270.924	275.556	276.391	248.841	281.643	290.238	223.464	326.573	92.566	85.571	108.776	188.346	148.334	143.464	142.986	170.704	137.114	128.662	194.816	92.590	53.730
40.000	325.045	334.093	305.230	226.305	273.168	277.585	279.710	255.216	283.362	282.216	223.631	323.899	94.046	85.356	108.967	191.450	145.756	140.718	139.620	164.353	135.681	137.209	194.577	96.004	47.098
41.000	322.324	333.664	304.061	223.989	276.439	280.903	283.028	260.874	284.532	272.786	224.443	321.202	97.006	86.239	109.707	194.601	143.416	138.546	136.302	158.098	134.225	146.782	193.861	98.104	35.502
42.000	319.578	333.115	303.870	223.177	278.039	282.789	286.108	265.935	285.630	262.736	225.493	318.671	100.635	87.027	110.232	196.033	140.862	135.944	132.769	152.727	133.031	156.570	193.073	100.874	29.005
43.000	314.971	331.945	303.106	225.421	280.951	285.105	289.569	270.638	286.418	252.207	225.087	315.186	104.288	87.123	110.948	194.123	138.045	133.389	129.307	148.024	132.148	166.932	192.763	104.049	34.284
44.000	311.652	331.634	302.843	229.050	283.362	287.301	292.291	274.338	287.063	240.438	225.469	311.032	108.083	88.459	111.306	190.423	135.275	131.217	126.753	144.395	131.551	177.889	192.667	107.845	44.481
45.000	305.230	330.512	301.220	233.610	285.893	289.689	294.941	277.633	287.516	229.456	226.066	308.286	113.741	88.674	112.787	185.720	133.007	129.283	124.150	141.172	130.859	188.632	192.357	111.163	51.790
46.000	298.856	330.656	299.978	238.814	288.376	291.503	297.495	280.474	288.352	219.931	225.875	305.016	119.877	89.605	113.861	180.348	130.501	127.134	121.739	138.140	130.620	198.970	192.070	115.198	47.729
47.000	292.601	329.414	298.761	243.709	290.357	293.580	299.787	283.267	288.662	222.199	226.782	301.220	127.684	90.035	115.413	175.120	128.376	125.272	119.280	135.610	130.286	197.179	191.736	118.492	39.066
48.000	284.007	328.483	296.540	248.197	292.434	294.893	301.530	285.535	288.949	229.838	226.472	297.281	135.848	91.253	116.821	170.202	126.418	123.339	117.418	133.437	130.286	188.823	191.617	121.811	31.441
49.000	274.577	327.767	294.869	253.521	294.105	296.899	303.344	287.206	289.187	238.958	226.997	294.631	144.419	91.706	119.209	164.807	124.222	121.667	115.795	131.408	129.904	179.465	191.378	124.962	33.472
50.000	264.860	326.430	292.530	258.486	296.015	299.095	304.610	289.187	289.235	247.695	226.949	290.668	153.801	92.900	121.071	159.579	122.551	119.280	114.171	129.498	129.784	170.895	191.259	128.662	40.691
51.000	255.359	325.547	289.498	263.452	297.901	301.387	305.994	290.572	289.355	255.120	227.021	287.492	163.732	93.568	124.198	155.186	120.689	117.561	113.025	128.066	129.617	163.971	191.091	132.387	47.865
52.000	247.146	325.499	286.490	267.630	299.358	302.867	307.403	291.861	289.307	261.351	227.045	284.079	172.160	94.929	127.516	150.841	119.113	115.986	111.999	126.800	129.617	157.979	191.091	135.657	47.684
53.000	239.913	323.637	283.601	271.521	301.053	304.180	308.191	292.959	289.569	266.221	227.451	280.879	180.086	95.431	130.978	146.949	117.681	114.219	110.901	125.607	129.641	152.942	190.877	138.976	41.548
54.000	232.989	323.613	279.375	274.816	302.175	305.660	308.835	293.891	289.211	269.707	227.403	278.349	186.532	97.006	134.702	143.679	116.224	112.978	110.089	124.867	129.379	148.931	190.853	141.673	35.006
55.000	228.119	322.419	275.603	277.680	303.392	306.806	309.742	294.583	289.450	273.550	228.071	275.436	191.784	97.078	138.570	140.886	115.436	112.094	109.086	123.864	129.355	145.469	190.781	144.299	34.058
56.000	223.607	321.345	271.497	280.283	304.371	307.498	310.315	295.490	289.546	276.248	227.666	273.550	195.269	97.937	142.795	138.236	114.410	111.211	108.728	123.195	129.211	142.509	190.686	146.639	39.337
57.000	221.220	320.653	267.486	281.954	304.968	308.191	310.865	296.230	289.474	278.373	227.976	270.686	197.800	99.322	147.069	136.302	113.622	110.471	108.107	122.527	129.259	140.337	190.542	148.859	45.609
58.000	219.429	320.509	263.404	284.246	305.756	308.883	311.270	296.469	289.474	280.450	227.451	269.229	200.498	99.728	151.844	134.392	112.858	109.874	107.869	122.145	129.307	138.570	190.495	150.698	46.646
59.000	220.623	319.173	259.871	285.965	306.400	309.217	311.509	296.803	289.546	282.025	227.427	267.343	199.161	100.659	155.974	132.482	112.166	109.397	107.487	121.811	129.307	136.755	190.399	152.798	42.180
60.000	224.323	318.146	255.956	287.230	306.902	309.742	311.819	297.472	290.047	283.768	227.713	265.791	195.413	101.136	159.937	131.193	111.569	108.871	107.176	121.333	129.188	135.347	190.399	154.350	37.532
61.000	229.337	317.931	252.470	288.686	307.666	310.053	311.987	297.663	289.689	285.033	227.857	263.762	190.447	102.234	163.685	129.999	111.068	108.465	106.914	120.832	129.068	133.986	190.351	156.069	34.961
62.000	234.398	316.809	248.650	289.808	308.071	310.769	312.583	298.235	289.713	285.965	228.024	261.518	184.908	102.712	167.194	128.734	110.686	108.060	106.699	120.713	129.140	132.649	190.280	157.764	38.344
63.000	239.387	316.117	245.404	291.002	308.334	310.960	312.560	298.355	289.904	287.325	228.382	260.133	179.966	103.285	170.942	127.684	110.304	107.701	106.460	120.116	129.116	131.599	190.256	159.555	43.533
64.000	244.687	315.400	242.563	291.527	308.429	311.247	312.655	298.665	289.665	287.970	227.833	258.367	175.287	104.335	174.117	126.800	109.993	107.487	106.388	119.972	129.211	130.668	190.065	160.987	45.203
65.000	248.626	314.637	239.817	292.792	309.122	311.748	312.942	298.785	289.498	289.092	228.525	257.006	171.372	105.099	177.054	126.227	109.707	107.343	106.197	119.614	129.044	129.999	190.041	162.515	42.586
66.000	251.993	314.087	237.597	293.150	309.122	311.724	312.989	299.501	289.880	290.214	228.382	255.860	167.433	105.768	180.014	125.225	109.349	107.200	106.054	119.471	128.997	128.949	190.089	164.114	38.615
67.000	255.407	313.729	234.804	294.129	309.599	312.058	312.965	299.525	289.880	290.429	228.071	254.571	163.828	106.603	182.569	124.699	109.253	106.794	105.815	119.280	129.092	128.280	190.089	165.117	36.314
68.000	258.224	312.965	232.846	294.774	309.647	312.058	313.252	299.620	289.856	290.882	228.071	253.258	161.488	106.699	184.669	123.816	108.776	106.842	105.720	119.161	129.092	127.922	189.898	166.454	37.848
69.000	260.897	312.106	231.557	294.774	309.790	312.297	313.705	300.074	289.928	291.861	228.549	251.897	158.456	107.439	186.794	123.434	108.895	106.675	105.720	118.946	129.140	127.206	190.017	167.791	41.954
70.000	263.810	311.270	229.599	295.777	310.578	312.679	313.682	300.026	289.808	291.885	228.334	250.680	156.308	108.298	188.537	122.981	108.513	106.412	105.672	118.779	129.116	126.776	189.802	168.985	44.390
71.000	265.744	311.294	228.597	296.373	310.411	312.631	313.682	299.931	289.737	292.768	228.453	249.725	154.016	108.991	189.969	122.431	108.370	106.341	105.481	118.612	129.116	126.275	189.850	169.987	43.308
72.000	267.677	310.363	227.331	296.540	310.745	312.560	313.514	300.121	289.617	292.936	228.692	248.794	151.939	109.659	191.378	122.097	108.155	106.126	105.481	118.540	129.164	125.965	189.802	171.038	39.969
73.000	268.895	309.766	226.615	296.875	310.530	312.679	313.729	300.169	289.784	293.294	228.000	247.528	150.554	110.232	192.572	121.620	108.083	106.102	105.505	118.421	129.211	125.487	189.731	172.040	37.442
74.000	271.139	309.528	226.329	297.567	310.769	312.655	313.586	300.432	289.904	293.843	228.644	246.764	148.430	110.566	193.359	121.095	108.036	105.959	105.314	118.230	129.068	125.201	189.850	172.709	37.848
75.000	272.261	308.859	225.541	297.591	310.769	313.037	313.920	300.480	289.951	294.225	228.310	245.857	147.260	111.211	194.100	120.832	107.916	105.863	105.338	118.254	129.164	124.819	189.802	173.712	40.736
76.000	274.147	307.856	225.803	297.877	310.984	312.751	314.135	300.647	289.784	294.249	228.859	245.022	145.827	111.832	194.744	120.689	107.701	105.768	105.171	118.110	129.020	124.485	189.683	174.667	44.030
77.000	275.078	307.498	225.302	297.901	311.079	313.180	314.064	300.862	289.999	294.750	228.310	244.043	144.729	112.261	195.102	120.259	107.678	105.744	105.052	118.015	129.068	124.150	189.659	175.454	43.714
78.000	276.487	307.427	225.565	298.379	311.032	313.252	314.016	300.814	289.832	294.941	228.430	243.494	143.536	113.025	194.911	120.259	107.749	105.720	105.123	117.848	128.997	123.768	189.659	176.242	40.736
79.000	277.298	306.878	225.589	298.474	311.485	313.324	314.016	301.148	289.880	295.633	228.191	243.088	142.294	113.527	194.983	120.020	107.534	105.625	105.123	117.681	128.973	123.434	189.755	176.958	38.480
80.000	278.397	305.780	225.708	298.808	311.079	313.347	314.159	301.029	290.190	295.824	228.644	242.324	141.148	113.837	194.983	119.590	107.439	105.577	105.123	117.728	128.973	123.291	189.659	177.579	38.074
81.000	279.734	305.374	226.138	299.214	311.342	313.228	314.278	301.148	289.928	295.681	228.573	241.584	140.313	114.625	194.935	119.471	107.343	105.553	105.219	117.513	129.020	123.243	189.659	178.176	39.202
82.000	280.307	304.801	226.281	299.119	311.390	313.061	314.040	301.315	289.999	295.991	228.835	241.035	139.286	114.911	194.505	119.232	107.367	105.601	104.884	117.442	129.044	123.076	189.564	178.868	43.398
83.000	280.689	304.443	226.329	299.692	311.270	313.347	314.040	301.339	289.999	296.182	228.644	240.486	138.761	115.484	194.171	119.089	107.320	105.505	104.908	117.394	129.068	122.861	189.635	179.489	43.578
84.000	282.049	303.703	227.522	299.716	311.605	313.300	314.111	301.291	289.665	296.087	228.716	240.104	137.758	116.344	193.813	118.707	107.224	105.386	104.980	117.299	128.901	122.503	189.683	179.990	41.728
85.000	282.694	303.321	227.284	299.787	311.485	313.276	314.183	301.458	289.880	296.588	228.955	239.292	137.042	116.750	193.407	118.850	107.176	105.338	104.861	117.251	128.925	122.312	189.587	180.563	39.292
86.000	283.434	302.342	227.761	300.002	311.843	313.371	314.207	301.578	289.880	296.731	228.692	238.767	136.350	117.394	192.906	118.540	107.009	105.290	104.789	117.203	128.949	122.217	189.683	181.232	38.209
87.000	283.864	301.721	228.382	300.193	311.557	313.443	314.493	301.793	290.214	296.827	228.644	238.194	135.777	117.800	192.524	118.445	106.938	105.362	104.813	117.251	128.997	122.097	189.611	181.638	39.202
88.000	284.270	301.530	228.143	300.480	311.963	313.324	314.040	301.435	289.760	296.970	228.859	237.692	135.084	118.516	192.166	118.325	107.057	105.290	104.717	117.227	128.997	121.978	189.659	181.996	42.135
89.000	284.962	301.053	228.907	300.742	311.796	313.395	314.255	301.435	289.569	297.304	228.334	237.430	134.297	118.970	191.426	118.182	106.938	105.362	104.813	117.132	128.997	121.667	189.635	182.282	43.578
