-----------------------------------------------------
BloodHound 307 VOC Analyser V2017.1
RoboScientific Ltd 
Espace North
Wisbech Road
Littleport
Cambridgeshire, UK
CB6 1RA 
-----------------------------------------------------
Date = 21/04/2022
Time = 11:08:40
Data is protected by RoboScientific Limited
-----------------------------------------------------
Name of the experiment = "44b_Day 24"
-----------------------------------------------------
Repeat No. = 2/4
-----------------------------------------------------
Experimental Time (in sec) and Flow Profile :
-----------------------------------------------------
Baseline = 2.00
Absorb = 4.00
Pause = 1.00
Desorb = 5.00
Flush = 20.00
Wait = 5.00
Higher Flow (V) = 4.00
Medium Flow (V) = 3.00
Low Flow (V) = 1.00
-----------------------------------------------------
Total Profile Time = 37 in sec
-----------------------------------------------------
Acquired data point per second = 4
--------------------------------------------------
Total data point stored  = 128
-----------------------------------------------------
Acquired sensor responses from 24 sensors
-----------------------------------------------------

Data Points	 Sen-1	 Sen-2	 Sen-3	 Sen-4	 Sen-5	 Sen-6	 Sen-7	 Sen-8	 Sen-9	 Sen-10	 Sen-11	 Sen-12	 Sen-13	 Sen-14	 Sen-15	 Sen-16	 Sen-17	 Sen-18	 Sen-19	 Sen-20	 Sen-21	 Sen-22	 Sen-23	 Sen-24	Humidity (%r.h.)
0.000	308.644	247.839	273.168	308.549	314.923	315.377	315.568	303.774	289.283	308.597	230.865	242.395	110.829	171.730	145.804	110.423	104.311	103.571	103.643	114.983	129.355	110.423	187.319	176.863	44.030
1.000	308.525	244.353	273.431	308.835	314.971	315.687	315.782	303.631	289.355	308.071	230.912	239.626	111.187	175.048	145.613	110.519	104.288	103.619	103.739	115.126	129.379	110.566	187.510	179.584	41.413
2.000	308.286	241.846	273.383	308.429	314.947	315.663	315.520	303.989	289.474	308.024	230.865	238.695	111.163	177.866	145.660	110.566	104.359	103.715	103.691	115.222	129.402	110.614	187.487	181.017	39.292
3.000	307.856	241.775	273.288	308.191	314.493	315.233	315.448	303.750	289.498	308.238	230.554	238.671	110.996	178.248	145.804	110.423	104.288	103.715	103.595	115.102	129.498	110.733	187.510	180.754	38.525
4.000	308.382	242.109	272.954	308.095	314.947	315.711	315.782	303.559	289.402	308.119	231.056	239.005	111.211	177.961	145.923	110.399	104.240	103.476	103.548	115.126	129.617	110.590	187.534	180.683	39.653
5.000	308.024	240.175	273.240	308.167	314.804	315.257	315.615	303.774	289.689	308.119	230.841	237.478	111.306	179.298	145.827	110.495	104.288	103.548	103.834	115.078	129.283	110.686	187.678	181.900	42.676
6.000	307.546	237.310	272.906	308.573	314.804	315.162	315.544	303.822	289.832	308.095	230.387	235.783	111.402	182.855	146.209	110.423	104.311	103.595	103.595	115.174	129.355	110.805	187.606	183.953	43.037
7.000	308.358	236.427	272.381	308.143	315.019	315.496	315.639	303.703	289.641	307.856	230.459	235.854	111.521	183.428	146.520	110.519	104.264	103.571	103.739	115.078	129.474	110.948	187.678	183.834	40.871
8.000	308.047	237.358	272.428	308.119	314.422	315.591	315.591	303.822	289.474	308.238	230.674	236.618	111.283	182.545	146.687	110.590	104.240	103.595	103.643	115.102	129.498	110.877	187.654	183.380	39.157
9.000	308.024	239.244	272.452	308.262	314.589	315.233	315.400	303.703	289.784	308.406	230.793	237.645	111.139	180.587	146.615	110.399	104.264	103.619	103.595	115.007	129.331	110.733	187.510	181.829	38.615
10.000	306.711	237.382	272.333	308.071	314.637	315.520	315.591	303.631	289.665	307.522	230.387	236.045	112.715	181.279	146.472	110.686	104.288	103.571	103.715	115.222	129.188	111.235	187.797	182.545	40.285
11.000	271.640	280.092	269.110	306.782	314.422	315.114	315.257	302.509	290.644	296.517	228.955	272.572	146.185	140.599	149.862	111.378	104.431	103.715	103.715	115.962	128.448	121.453	189.635	148.525	38.751
12.000	227.928	302.151	260.110	305.016	313.968	314.637	315.353	300.599	290.835	262.807	227.260	292.410	192.858	117.561	159.316	113.527	104.884	104.097	103.977	118.086	128.185	158.576	191.020	128.113	34.870
13.000	252.518	313.467	246.788	302.389	313.610	314.302	314.971	297.973	290.930	234.016	226.209	304.084	168.101	105.553	173.043	116.153	105.075	104.502	104.120	120.545	128.185	185.648	191.784	116.129	41.413
14.000	272.882	320.175	233.825	298.594	313.061	313.538	314.780	295.371	290.405	224.085	225.756	311.581	145.636	98.821	187.343	120.020	105.601	105.290	104.335	123.339	128.280	194.410	192.739	108.083	50.301
15.000	290.071	324.831	235.281	293.843	312.512	312.607	314.159	291.981	290.119	239.029	224.777	317.096	128.113	94.786	183.929	124.222	106.126	106.030	104.837	126.633	129.044	178.701	193.359	102.831	49.534
16.000	302.509	327.313	244.998	288.877	311.867	311.652	313.514	288.543	289.402	252.924	224.395	320.987	115.365	92.088	171.014	129.355	106.699	106.961	105.338	130.023	129.402	164.783	193.741	99.513	38.615
17.000	311.915	328.459	255.025	282.718	311.103	310.268	312.822	284.126	288.519	264.550	224.323	323.541	107.606	90.059	159.746	135.562	107.845	108.322	106.054	134.129	130.334	153.873	194.290	96.958	29.230
18.000	318.313	331.085	263.309	276.917	310.148	308.811	312.106	280.139	287.397	273.837	223.870	324.974	101.017	88.889	150.077	142.103	108.513	109.731	106.938	139.095	131.360	144.419	194.553	94.762	32.163
19.000	322.061	331.348	270.304	269.969	309.122	307.069	311.032	274.601	286.418	281.500	223.153	326.406	97.054	88.078	142.318	148.907	109.778	111.760	108.012	144.132	132.339	137.066	194.840	93.449	45.112
20.000	324.974	331.825	276.009	263.404	307.928	304.753	309.504	269.086	285.081	287.373	222.795	328.077	93.759	87.409	135.586	155.854	110.996	114.028	109.588	149.981	133.580	130.763	195.198	92.852	53.911
21.000	327.361	332.804	280.521	255.932	306.806	302.389	307.833	263.356	284.222	291.981	223.344	328.388	91.730	86.406	129.474	162.730	112.190	116.463	111.115	155.735	134.488	125.869	195.245	91.682	48.406
22.000	328.817	333.067	284.031	248.961	305.135	299.238	305.708	257.316	283.076	296.636	223.321	328.889	89.964	86.263	125.153	169.510	113.670	119.280	113.192	161.823	135.753	121.405	195.293	91.396	35.998
23.000	330.250	332.852	288.042	242.610	303.201	295.586	303.153	251.205	281.763	300.050	223.273	329.104	88.794	86.717	121.835	176.744	115.222	122.670	115.460	167.934	137.161	118.445	195.460	90.584	28.057
24.000	330.823	333.568	290.477	236.332	301.936	292.577	300.838	245.690	280.450	302.986	222.724	330.703	88.078	86.072	118.468	183.404	117.060	125.965	118.468	174.213	138.331	115.078	195.341	89.558	32.975
25.000	331.348	333.544	292.196	231.748	299.954	289.689	297.543	239.913	278.922	305.350	223.464	330.369	87.385	86.645	116.630	188.704	118.922	128.949	121.381	180.110	139.835	112.930	195.413	89.725	46.015
26.000	332.947	333.568	293.318	229.575	298.880	288.758	295.824	238.337	278.540	304.777	223.058	330.942	87.314	85.571	115.938	190.829	119.972	130.047	123.386	181.590	140.193	113.407	195.914	89.820	54.407
27.000	332.733	334.308	294.177	229.575	298.164	288.591	294.798	238.743	278.970	304.896	223.010	330.250	86.741	86.120	115.031	190.829	120.378	129.808	124.079	181.112	139.955	113.813	195.651	89.629	47.955
28.000	331.539	333.640	294.249	229.671	298.116	288.734	294.487	239.292	279.089	304.443	222.986	330.441	87.242	85.619	115.246	190.447	120.736	129.379	124.437	180.229	139.955	114.219	195.651	88.889	35.186
29.000	332.375	334.093	294.631	229.599	298.689	289.331	294.535	239.937	278.850	303.965	223.034	330.918	87.409	85.786	115.532	190.351	120.736	129.140	124.628	179.823	139.740	114.983	195.986	89.247	27.922
30.000	333.616	334.929	294.965	229.408	297.567	288.376	293.580	238.504	278.540	305.517	222.724	331.014	86.550	85.069	115.222	191.163	121.214	130.501	125.726	181.184	140.193	112.930	195.842	89.009	34.239
31.000	334.452	334.284	296.684	226.758	296.302	285.869	291.050	234.231	277.227	307.904	223.034	330.799	86.215	85.810	113.598	193.288	122.408	133.007	128.280	185.338	141.554	110.590	195.556	88.627	47.820
32.000	333.640	334.666	296.899	226.185	294.225	282.240	288.591	230.077	276.344	308.859	222.915	330.632	86.287	85.690	112.810	193.359	124.508	136.063	131.241	189.731	142.915	109.874	195.747	88.794	54.091
33.000	333.115	334.165	297.997	226.162	292.052	280.474	285.726	230.745	276.129	306.878	222.819	330.202	87.385	86.550	111.641	192.142	126.036	138.021	133.676	188.991	142.915	111.545	195.651	88.674	46.285
34.000	330.942	334.308	298.379	226.472	290.906	280.330	284.651	235.353	277.346	302.557	223.034	330.369	89.200	86.669	111.259	191.808	127.493	138.307	134.655	183.715	141.244	115.627	195.341	90.346	32.524
35.000	328.913	334.237	298.761	225.923	291.145	281.070	286.012	242.133	279.137	296.397	223.368	328.197	90.871	85.762	111.426	192.452	127.779	137.233	133.365	176.887	139.549	122.837	195.413	92.542	28.599
36.000	327.122	333.067	298.570	225.207	291.814	282.837	287.516	249.247	281.285	288.089	223.583	326.024	92.852	86.741	111.641	193.909	126.729	135.610	131.742	169.486	137.663	130.930	194.744	93.927	37.893
37.000	324.281	332.255	298.188	225.016	293.103	285.368	289.951	256.361	282.789	277.609	223.679	323.064	94.834	86.836	112.023	194.529	125.654	133.604	129.379	162.873	135.992	141.411	194.267	96.099	50.075
38.000	320.915	332.852	297.615	226.520	294.225	287.182	292.339	262.688	284.174	266.030	224.514	320.295	97.961	87.696	112.285	193.264	124.270	131.503	126.920	156.523	134.631	152.989	193.216	99.417	52.196
39.000	317.907	331.730	297.137	229.910	296.087	289.450	294.845	268.155	285.320	252.613	225.565	317.382	101.972	88.388	113.264	189.683	122.837	129.355	124.103	150.674	133.461	166.669	193.073	101.876	42.676
40.000	313.562	331.157	296.182	234.302	297.448	291.217	297.257	272.691	286.466	238.600	225.589	313.252	106.484	89.510	114.362	185.123	121.095	127.134	121.739	146.042	132.578	180.516	192.452	106.030	31.892
41.000	308.191	329.414	295.753	239.268	299.214	293.413	299.477	276.773	286.991	224.753	226.376	309.289	112.190	89.725	115.651	179.298	119.447	125.081	119.352	141.960	131.861	194.410	191.975	110.017	30.494
42.000	300.718	328.984	293.556	244.878	300.647	295.872	301.530	280.283	287.516	220.886	226.687	304.992	118.373	90.441	116.654	173.879	118.039	123.076	117.060	138.069	131.097	197.131	191.736	114.171	38.164
43.000	292.219	327.313	292.315	250.441	301.769	297.328	304.061	283.291	288.113	232.727	226.830	300.312	127.015	91.372	119.256	168.483	117.036	121.214	115.269	135.371	130.859	186.174	191.306	118.874	47.955
44.000	282.837	327.003	289.689	255.359	302.676	299.286	305.493	285.750	288.400	243.327	227.212	295.609	136.660	92.518	120.951	163.136	115.651	119.209	113.622	132.864	130.620	175.860	191.115	123.840	49.715
45.000	272.022	325.738	288.137	260.563	304.084	301.267	306.806	287.803	288.495	252.136	227.666	290.906	147.427	93.354	123.506	157.812	114.625	117.418	112.023	130.787	130.214	166.812	190.853	128.806	42.315
46.000	260.277	324.353	285.559	264.956	305.493	303.273	308.191	289.450	288.495	259.250	227.761	286.728	159.650	94.237	126.275	153.228	113.479	115.580	110.805	128.925	130.190	159.364	190.757	133.198	34.329
47.000	248.674	323.374	282.646	269.301	305.970	304.777	308.907	290.882	288.853	265.911	227.737	282.646	170.656	95.789	129.498	149.003	112.500	113.885	109.898	127.755	130.166	152.822	190.495	137.567	33.607
48.000	238.385	322.276	279.065	273.312	307.069	306.233	309.957	292.386	289.426	271.473	228.071	278.039	181.279	96.791	133.174	145.231	111.927	112.548	109.015	126.442	129.880	147.642	190.447	141.506	39.518
49.000	229.981	321.178	275.317	276.558	307.570	307.331	310.841	293.604	288.949	275.460	228.071	274.123	189.492	98.080	136.779	142.175	111.068	111.259	108.107	125.201	129.856	143.559	190.065	145.183	46.511
50.000	223.392	320.080	271.282	279.972	308.597	308.931	311.414	294.750	289.187	279.829	228.191	270.542	196.511	99.179	141.721	138.283	110.280	110.041	107.606	124.126	129.856	139.262	189.922	149.194	45.970
51.000	219.286	318.385	266.770	283.219	309.313	310.005	312.010	295.347	288.949	282.694	228.453	266.460	200.187	100.468	146.878	135.395	109.564	108.609	107.081	123.339	129.832	136.230	189.850	153.085	40.781
52.000	219.644	317.287	261.661	285.511	309.480	310.960	312.488	296.087	289.092	285.201	228.358	263.356	199.280	101.853	152.727	132.888	109.015	108.036	106.747	122.646	129.808	133.724	189.683	156.188	35.818
53.000	225.016	316.021	256.433	287.922	310.172	311.581	312.703	296.540	289.187	287.325	228.453	260.157	194.529	102.569	157.883	130.596	108.370	107.343	106.293	122.026	129.641	131.575	189.611	158.934	36.495
54.000	230.865	315.496	251.802	289.665	310.339	311.414	312.798	297.257	289.355	289.044	228.573	257.436	188.489	103.858	162.897	128.782	108.060	106.890	106.102	121.548	129.713	129.904	189.611	161.727	41.277
55.000	238.027	314.302	247.385	291.288	310.721	312.488	313.324	297.424	289.259	290.477	228.859	254.929	182.020	104.932	168.197	127.325	107.654	106.556	105.911	121.023	129.737	128.519	189.492	164.234	44.932
56.000	246.287	313.443	243.183	292.506	311.032	312.512	313.586	298.212	289.235	292.076	229.122	251.945	173.258	106.006	173.115	125.845	107.439	106.078	105.481	120.498	129.593	126.609	189.277	167.337	43.488
57.000	251.133	312.010	239.364	294.034	311.628	313.180	313.873	298.976	289.283	293.294	229.026	248.579	168.292	107.152	177.818	124.652	107.152	105.720	105.290	119.925	129.570	125.511	189.182	170.775	39.924
58.000	254.881	310.960	235.854	294.917	311.748	313.133	313.849	299.238	289.450	293.986	229.170	246.931	164.664	108.370	182.163	123.506	107.009	105.457	105.219	119.614	129.665	124.890	189.301	172.781	37.217
59.000	258.510	310.339	232.560	295.848	311.867	313.347	313.944	299.167	289.426	294.869	228.764	245.213	160.939	109.158	185.696	122.551	106.794	105.290	105.123	119.495	129.689	124.031	189.205	174.308	38.299
60.000	262.688	308.859	230.578	296.851	312.392	313.849	314.278	299.525	289.760	295.586	229.026	243.279	156.212	110.089	188.274	121.787	106.508	105.219	104.956	119.232	129.474	123.195	189.182	175.836	41.774
61.000	267.463	307.785	228.621	297.782	312.536	313.634	313.944	299.596	289.283	296.636	229.337	240.271	152.082	111.426	191.044	120.975	106.579	104.884	105.004	119.041	129.689	122.312	189.158	178.940	44.210
62.000	269.325	305.994	227.403	298.403	312.536	313.825	314.469	300.026	289.044	296.970	229.313	238.051	150.029	113.001	192.691	120.331	106.221	104.741	104.598	118.683	129.570	121.787	189.062	181.279	42.225
63.000	271.354	305.660	227.355	298.999	312.607	313.944	314.493	300.145	289.760	297.591	229.193	237.382	148.477	113.861	193.598	119.805	106.150	104.765	104.622	118.588	129.498	121.262	188.823	182.091	39.427
64.000	272.763	304.586	228.071	299.381	312.870	314.469	314.660	300.360	289.450	297.806	229.050	236.332	146.902	114.601	193.503	119.376	106.030	104.693	104.550	118.564	129.784	121.142	188.991	183.213	38.480
65.000	275.436	303.679	228.382	299.501	312.751	314.374	314.398	300.575	289.259	298.522	229.623	234.971	144.204	115.580	193.145	118.970	105.911	104.598	104.502	118.063	129.474	120.522	188.991	184.335	38.976
66.000	279.352	301.817	229.026	300.074	312.894	314.207	314.589	300.671	289.426	299.811	229.552	232.106	140.337	117.299	192.046	118.301	105.887	104.598	104.550	117.967	129.474	119.423	188.895	187.105	41.909
67.000	283.625	299.262	230.793	301.172	312.894	314.446	314.756	300.957	289.211	300.503	229.790	227.904	136.135	120.020	189.874	117.800	105.601	104.431	104.407	117.800	129.713	118.445	188.561	191.115	42.360
68.000	287.540	295.514	233.061	301.244	312.989	314.613	314.708	301.220	289.689	301.864	229.981	223.321	132.124	123.339	187.200	117.108	105.744	104.288	104.335	117.537	129.379	117.036	188.465	195.771	40.736
69.000	290.620	291.742	235.520	302.318	313.085	314.326	314.899	301.769	289.522	302.819	229.814	219.787	129.450	127.779	183.810	116.248	105.529	104.264	104.311	117.346	129.713	116.033	188.203	199.638	39.788
70.000	290.787	287.397	238.480	302.867	313.753	315.210	315.019	301.506	289.187	302.652	230.196	219.405	128.925	131.909	180.707	115.699	105.314	104.168	104.264	117.179	129.617	115.699	188.155	200.617	40.014
71.000	289.140	286.800	239.984	302.962	313.729	314.756	315.019	301.649	289.259	302.175	229.790	219.907	130.548	132.840	179.417	115.413	105.171	104.049	104.144	117.084	129.593	116.439	188.203	199.543	40.104
72.000	288.471	286.299	240.987	303.392	313.443	314.708	314.899	301.602	289.760	302.198	229.552	221.196	131.384	133.318	178.486	115.532	105.314	104.192	104.216	116.988	129.498	116.726	188.442	198.540	40.871
73.000	288.209	285.678	241.488	303.249	313.538	314.613	314.851	301.817	289.975	302.007	229.886	221.578	131.336	133.676	178.080	115.222	105.243	104.097	104.192	117.012	129.498	116.941	188.489	197.943	41.187
74.000	288.710	285.177	241.846	303.321	313.705	314.923	314.995	301.721	289.522	301.673	230.053	221.626	131.241	134.464	177.579	115.341	105.147	104.097	104.168	116.988	129.426	117.132	188.537	197.442	40.510
75.000	288.185	284.198	242.443	303.774	313.753	314.899	314.995	301.315	289.235	301.626	229.743	222.366	130.883	135.108	177.388	115.246	105.290	104.120	104.144	116.869	129.283	117.108	188.561	197.036	39.382
76.000	288.686	283.816	242.658	303.488	313.324	314.637	314.828	301.530	289.498	301.721	229.910	222.581	130.644	135.848	177.078	115.150	105.243	104.025	104.144	117.012	129.450	117.299	188.537	196.869	39.112
77.000	288.996	282.718	242.682	303.631	313.586	314.493	314.875	301.578	289.522	301.745	229.480	223.321	130.357	136.469	176.767	115.055	105.195	104.073	104.097	116.988	129.450	117.299	188.609	196.678	40.194
78.000	289.713	281.954	242.849	303.774	313.705	314.947	314.971	301.697	289.426	301.530	229.719	222.628	129.761	137.376	176.481	115.055	105.123	104.120	104.144	116.917	129.402	117.155	188.561	196.821	41.277
79.000	291.933	280.712	243.923	303.798	313.562	314.684	315.210	302.127	289.593	301.984	229.647	221.411	127.922	138.880	175.908	114.983	105.266	104.073	104.168	116.917	129.426	116.821	188.442	197.704	41.052
80.000	294.296	277.036	244.568	303.989	313.562	314.613	315.162	301.817	289.450	302.867	229.910	219.477	125.678	142.127	174.667	114.792	105.052	103.977	104.097	116.654	129.355	116.033	188.107	199.853	39.924
81.000	295.944	272.834	246.024	304.299	313.873	315.138	314.899	302.127	289.593	303.703	230.196	219.047	123.506	146.711	172.685	114.410	105.004	103.810	104.073	116.678	129.474	115.198	188.012	200.593	39.924
82.000	298.474	267.296	248.388	304.777	314.135	314.995	315.162	302.342	289.235	304.275	230.005	222.127	121.047	151.390	170.345	114.028	104.932	104.025	104.073	116.535	129.593	114.291	187.964	197.609	40.600
83.000	299.954	261.637	250.918	305.063	314.040	315.162	315.520	302.485	289.474	305.063	230.507	224.777	120.044	157.573	167.839	113.622	104.861	103.834	104.049	116.391	129.570	113.909	187.773	195.222	40.194
84.000	299.071	257.818	252.995	305.254	314.016	315.042	315.424	302.557	289.426	304.992	230.363	224.180	120.354	161.297	165.953	113.383	104.837	103.810	104.001	116.463	129.617	113.885	187.797	195.436	39.337
85.000	298.307	259.298	253.568	305.541	314.398	315.305	315.544	302.580	289.522	304.729	230.339	221.578	121.333	159.841	165.618	113.169	104.813	103.953	104.049	116.320	129.426	114.100	188.036	198.325	39.382
86.000	298.212	259.704	253.926	305.278	313.729	315.090	315.305	302.748	289.713	304.777	230.077	220.814	121.429	159.268	165.069	113.288	104.861	103.834	104.001	116.248	129.355	114.434	188.060	199.137	40.194
87.000	299.071	257.316	254.690	305.636	314.064	314.899	315.162	302.580	289.378	304.992	230.268	223.583	119.829	161.823	164.425	113.216	104.765	103.858	103.977	116.200	129.546	113.861	187.940	195.795	40.916
88.000	301.220	252.828	255.979	305.756	313.992	314.875	315.305	302.580	289.474	305.708	230.292	227.642	118.373	166.048	162.801	112.858	104.884	103.977	104.144	116.177	129.498	113.145	187.725	191.593	41.187
89.000	301.864	247.003	257.842	305.708	314.135	315.353	315.639	303.034	289.402	305.970	230.411	229.146	117.919	171.993	160.868	112.691	104.717	103.762	103.858	116.081	129.641	112.978	187.701	190.662	40.014
