-----------------------------------------------------
BloodHound 307 VOC Analyser V2017.1
RoboScientific Ltd 
Espace North
Wisbech Road
Littleport
Cambridgeshire, UK
CB6 1RA 
-----------------------------------------------------
Date = 24/02/2021
Time = 12:21:06
Data is protected by RoboScientific Limited
-----------------------------------------------------
Name of the experiment = "1149N"
-----------------------------------------------------
Repeat No. = 2/5
-----------------------------------------------------
Experimental Time (in sec) and Flow Profile :
-----------------------------------------------------
Baseline = 2.00
Absorb = 4.00
Pause = 1.00
Desorb = 5.00
Flush = 18.00
Wait = 5.00
Higher Flow (V) = 4.00
Medium Flow (V) = 3.00
Low Flow (V) = 1.00
-----------------------------------------------------
Total Profile Time = 35 in sec
-----------------------------------------------------
Acquired data point per second = 4
--------------------------------------------------
Total data point stored  = 120
-----------------------------------------------------
Acquired sensor responses from 24 sensors
-----------------------------------------------------

Data Points	 Sen-1	 Sen-2	 Sen-3	 Sen-4	 Sen-5	 Sen-6	 Sen-7	 Sen-8	 Sen-9	 Sen-10	 Sen-11	 Sen-12	 Sen-13	 Sen-14	 Sen-15	 Sen-16	 Sen-17	 Sen-18	 Sen-19	 Sen-20	 Sen-21	 Sen-22	 Sen-23	 Sen-24	Humidity (%r.h.)
0.000	312.655	303.703	285.153	284.699	227.498	294.583	291.169	305.565	244.616	221.220	300.217	303.058	107.081	116.463	134.869	134.297	191.569	124.604	128.471	113.479	175.048	198.277	118.421	115.795	49.083
1.000	312.703	303.464	284.866	284.317	227.761	294.607	291.026	305.517	244.544	221.172	299.811	303.177	107.081	116.391	134.798	134.249	191.521	124.628	128.448	113.407	175.025	198.349	118.612	115.795	34.825
2.000	313.156	303.297	285.010	284.365	227.642	294.678	291.050	305.875	244.544	221.029	300.217	303.440	107.248	116.559	135.013	134.225	191.521	124.699	128.639	113.670	175.025	198.301	118.516	115.747	28.779
3.000	312.560	303.464	285.057	284.651	227.809	295.180	291.073	305.398	244.162	221.148	299.978	303.607	107.367	116.559	134.893	134.225	191.617	124.604	128.400	113.503	175.168	198.158	118.397	115.771	41.232
4.000	312.297	303.344	285.368	284.580	227.307	294.392	290.835	305.302	244.759	220.909	299.763	303.726	107.487	116.606	134.846	134.249	191.545	124.580	128.448	113.383	175.096	198.301	118.540	115.795	51.429
5.000	312.392	303.225	285.057	284.413	227.451	294.535	291.121	305.445	244.353	221.220	300.074	303.416	107.415	116.582	135.037	134.177	191.712	124.723	128.376	113.455	174.953	198.325	118.397	115.747	42.270
6.000	312.942	302.986	285.105	284.484	227.761	294.726	291.479	305.565	244.520	221.100	300.193	303.010	107.463	116.535	134.941	134.320	191.617	124.604	128.304	113.360	174.858	198.277	118.588	115.914	28.734
7.000	312.774	302.939	284.055	284.150	227.451	295.084	291.384	305.970	244.186	221.387	300.336	303.583	107.200	116.415	134.917	134.201	191.545	124.604	128.280	113.431	174.762	198.230	118.516	115.842	34.509
8.000	312.225	303.440	284.699	284.174	227.475	295.227	291.217	305.708	244.305	221.530	300.217	303.464	107.511	116.463	134.941	134.153	191.569	124.580	128.352	113.479	175.048	198.206	118.468	115.651	48.767
9.000	312.989	302.986	285.105	284.580	228.071	295.013	291.455	305.350	244.735	221.220	300.312	303.130	107.081	116.463	134.726	134.273	191.497	124.604	128.400	113.383	174.690	198.230	118.516	115.508	48.090
10.000	311.390	303.010	284.580	284.270	227.379	294.726	291.121	305.684	243.852	221.387	300.312	303.631	107.773	116.654	134.917	134.153	191.497	124.676	128.424	113.407	174.905	198.134	118.492	115.938	33.652
11.000	302.103	302.342	284.484	284.246	227.403	294.320	290.763	305.445	242.825	220.671	300.169	303.082	116.702	117.251	134.846	134.249	191.426	124.795	128.639	113.598	176.099	198.468	118.803	116.057	29.321
12.000	287.158	298.570	284.580	284.198	228.501	293.771	290.429	305.207	240.414	219.668	298.641	300.694	132.387	120.211	134.822	134.129	191.068	126.036	129.474	113.861	178.295	199.662	119.996	118.468	42.495
13.000	271.426	295.180	284.699	284.628	228.549	292.148	288.662	304.395	238.027	218.164	296.421	297.209	147.713	124.580	135.060	134.177	190.781	127.684	130.716	114.434	181.781	200.665	121.739	121.644	50.752
14.000	256.099	290.596	283.959	284.508	228.764	289.283	286.633	304.013	234.016	217.281	293.318	294.607	163.279	128.949	135.514	134.320	190.566	129.808	132.936	115.126	185.171	201.954	125.702	124.413	40.691
15.000	242.014	286.012	283.673	284.628	229.002	285.845	282.765	302.007	230.841	215.920	288.089	291.264	177.722	133.580	135.992	134.464	190.256	133.413	136.899	116.821	188.322	203.100	130.525	127.994	29.501
16.000	229.074	280.927	282.885	283.959	229.217	281.858	277.227	300.217	227.809	215.371	283.458	287.731	190.638	138.474	136.230	134.655	190.065	136.923	142.008	119.280	191.091	204.031	135.323	130.859	36.314
17.000	218.880	275.603	282.742	283.625	229.313	278.588	270.996	296.946	227.785	214.583	278.182	284.150	201.094	143.464	136.875	134.941	190.160	140.575	148.119	121.835	190.996	204.532	140.599	135.037	47.549
18.000	223.512	271.258	282.264	283.458	229.002	275.460	265.266	294.798	230.912	215.180	273.359	280.641	195.890	148.525	137.424	135.920	190.232	144.085	154.374	124.103	188.465	204.031	145.827	138.785	45.112
19.000	231.629	266.102	281.405	281.978	229.313	271.091	258.367	292.243	234.135	216.039	267.725	276.344	187.988	153.897	138.212	136.541	190.208	147.713	160.796	126.848	184.837	203.339	151.414	143.010	34.915
20.000	238.600	261.088	280.402	280.617	228.883	267.510	252.279	289.737	238.242	217.495	261.733	272.619	181.279	158.624	138.976	137.734	190.399	151.581	166.573	129.283	180.587	201.476	156.547	146.735	33.291
21.000	244.807	255.621	280.068	279.829	228.716	263.452	246.478	287.087	242.205	219.071	255.884	267.845	174.762	164.114	139.955	138.904	190.781	155.472	172.518	131.814	176.624	199.471	162.587	150.841	42.089
22.000	249.414	250.441	278.612	278.588	227.737	258.988	240.915	284.962	246.931	222.270	250.608	264.311	169.247	169.152	141.196	140.002	191.306	159.960	178.653	134.583	172.709	197.561	168.459	155.138	45.789
23.000	255.430	245.642	277.131	276.940	226.758	255.359	235.210	281.715	250.799	223.941	244.449	259.966	164.234	174.165	142.294	141.315	192.070	164.091	184.479	137.209	168.650	194.911	174.428	159.411	40.149
24.000	260.062	240.939	275.890	276.535	226.185	251.181	229.838	278.779	254.284	225.851	238.623	255.645	159.913	179.298	143.798	142.413	193.001	168.531	189.707	140.193	164.807	192.572	180.301	163.876	34.870
25.000	263.070	236.165	274.123	274.744	224.920	246.406	224.992	276.296	257.054	228.191	232.894	251.730	157.239	183.547	145.135	143.631	193.909	172.446	194.267	142.867	161.703	190.399	185.601	167.409	38.344
26.000	262.187	236.642	273.479	274.672	224.467	245.117	223.750	277.489	257.913	229.814	232.154	252.231	157.812	183.213	146.042	143.345	194.649	174.022	196.153	141.793	161.417	189.349	187.105	166.908	43.939
27.000	261.088	237.764	273.455	275.890	224.156	245.809	223.894	278.540	258.009	230.698	232.798	252.971	159.006	182.234	146.090	142.867	195.031	173.926	195.914	140.742	161.345	188.776	186.627	166.072	42.676
28.000	260.372	238.480	273.741	275.794	224.108	245.642	224.252	278.946	257.842	230.960	232.393	254.261	159.769	181.590	146.162	142.819	195.102	173.783	195.627	140.050	161.536	188.179	186.603	165.380	36.810
29.000	260.277	238.838	273.646	276.176	224.085	245.523	224.132	279.304	258.056	231.843	232.631	254.643	159.650	181.208	146.257	142.533	195.269	173.807	195.532	139.787	161.035	187.439	186.818	165.117	36.043
30.000	264.383	234.875	272.572	275.126	223.106	243.709	221.626	277.155	260.778	232.631	229.002	251.420	155.568	184.120	146.639	143.392	195.556	175.526	197.490	141.673	158.600	185.696	189.993	167.385	41.593
31.000	259.823	234.756	272.333	273.789	222.867	239.578	219.405	273.192	263.858	234.637	223.512	251.826	161.154	184.383	147.833	144.538	196.463	179.513	200.617	145.613	155.329	184.359	195.054	167.409	43.398
32.000	229.480	246.740	270.136	272.619	221.578	236.236	220.575	270.972	266.221	235.735	222.963	260.850	188.442	172.303	149.552	146.066	197.513	183.858	199.399	148.525	153.037	183.476	196.129	158.122	40.104
33.000	251.157	259.799	268.776	271.569	220.480	232.464	223.631	269.993	267.797	235.806	226.735	270.089	169.104	159.793	150.960	147.117	198.659	187.009	196.439	149.480	151.939	183.595	192.524	149.146	34.374
34.000	268.895	270.709	267.415	269.874	219.596	229.790	225.493	270.924	268.394	234.899	232.440	278.134	150.817	149.456	152.512	148.239	199.543	189.707	194.243	148.406	151.390	184.097	186.341	141.626	37.938
35.000	280.712	277.871	265.314	269.492	218.546	228.215	227.021	273.526	267.343	234.231	240.032	283.076	139.095	141.172	153.730	149.074	200.545	191.235	192.858	146.018	152.440	185.433	178.701	135.801	46.511
36.000	289.378	284.174	264.789	269.301	218.068	228.453	227.260	276.296	266.388	231.915	247.982	287.516	130.047	135.347	155.425	149.504	201.262	191.688	192.309	142.748	153.419	186.794	170.011	131.456	44.751
37.000	294.845	288.256	263.595	269.372	217.877	229.002	227.093	279.399	263.929	230.244	256.123	290.548	125.153	131.647	156.332	149.361	201.596	190.542	192.619	139.549	155.448	188.442	162.754	128.853	34.148
38.000	299.310	291.336	262.616	269.707	216.994	230.578	225.923	283.338	260.706	228.549	264.025	292.816	120.689	128.328	156.809	149.098	202.073	188.609	193.622	136.302	158.647	190.423	155.305	126.323	31.577
39.000	301.817	293.676	262.378	270.256	217.663	233.920	224.538	285.821	257.078	226.973	269.659	294.583	117.561	125.726	157.167	148.501	201.858	185.481	195.484	133.270	162.157	192.118	149.361	124.485	43.578
40.000	303.559	295.275	262.330	271.139	218.021	237.048	222.199	288.280	253.950	225.541	274.863	296.302	115.222	123.912	157.263	147.785	201.715	181.996	197.824	130.262	165.332	193.813	143.631	123.243	49.895
41.000	305.803	297.639	263.022	272.070	218.594	241.178	219.644	291.002	249.438	223.703	279.399	296.970	114.458	122.479	156.881	146.615	201.071	177.818	200.116	127.779	169.725	195.341	139.405	122.264	39.743
42.000	307.307	297.973	263.189	272.404	218.928	245.189	219.692	293.556	245.427	221.984	283.171	297.949	112.834	122.026	156.618	145.708	200.545	173.783	200.330	125.821	173.162	196.964	135.872	121.309	29.230
43.000	307.689	298.474	263.738	273.980	219.620	249.868	222.557	294.798	242.133	220.432	285.678	298.999	111.688	120.808	155.592	144.490	199.662	169.176	196.558	124.103	177.269	198.564	132.983	120.641	37.126
44.000	308.597	299.763	265.362	274.887	220.265	253.998	227.451	296.540	238.433	218.713	288.065	299.023	111.354	120.235	154.517	143.488	198.803	165.022	191.641	122.503	180.444	200.163	130.787	120.044	49.805
45.000	308.740	299.907	266.269	276.200	221.578	258.629	232.774	297.495	235.592	217.639	290.023	300.217	110.948	119.805	153.539	142.342	198.015	160.486	186.317	121.381	183.571	201.763	128.758	119.543	45.518
46.000	309.814	300.169	267.176	276.702	222.151	262.592	238.361	298.832	232.655	216.755	291.097	300.193	110.614	119.471	152.345	141.650	197.131	156.666	181.351	120.498	185.959	202.551	127.612	119.137	31.622
47.000	309.384	301.148	269.014	277.895	222.700	266.317	243.852	299.334	230.626	215.538	292.721	300.456	109.850	119.137	151.008	140.695	196.415	153.157	176.003	119.543	188.274	203.577	126.323	118.946	30.945
48.000	310.124	301.435	270.113	278.970	223.535	269.563	248.364	300.026	229.552	215.180	293.127	300.265	109.540	118.707	149.695	139.907	195.866	149.814	170.799	118.755	189.731	204.007	125.392	118.779	44.706
49.000	310.220	301.649	270.853	279.208	223.822	272.333	253.162	301.029	228.453	214.893	294.344	301.148	109.611	118.612	148.573	139.358	195.269	146.615	165.953	118.349	190.566	204.461	124.652	117.919	50.662
50.000	310.674	301.578	272.333	279.734	224.228	275.245	258.152	301.387	228.095	214.893	294.845	300.742	108.967	118.421	147.546	138.641	194.887	143.894	161.297	117.633	191.211	204.389	123.912	118.158	39.472
51.000	311.079	301.793	273.670	280.330	224.992	277.513	262.163	301.960	228.191	214.846	295.418	300.766	109.301	118.277	146.424	138.212	194.601	141.387	157.334	117.155	191.211	204.174	123.291	118.182	28.418
52.000	311.247	301.435	274.267	280.951	225.111	279.925	265.648	302.294	228.239	215.060	295.896	301.029	108.680	118.158	145.398	137.639	194.338	139.382	153.801	116.821	190.757	203.959	122.742	117.991	37.081
53.000	311.175	301.267	275.412	280.975	225.230	281.357	268.370	302.795	228.812	215.514	296.349	301.100	108.824	117.919	144.610	137.448	193.956	137.782	150.865	116.487	190.328	203.697	122.575	117.848	50.211
54.000	310.960	301.745	275.985	281.667	225.827	283.028	270.924	302.843	229.934	215.800	296.135	301.482	108.585	117.895	143.774	136.946	193.741	136.206	148.358	116.248	189.731	203.100	122.217	117.633	45.789
55.000	311.366	302.175	277.060	281.834	225.899	284.055	273.216	303.321	230.936	216.612	296.731	301.554	108.680	117.895	142.939	136.684	193.550	135.180	146.424	116.105	189.158	202.861	121.858	117.633	31.396
56.000	311.461	301.840	277.585	281.930	225.875	285.224	275.126	303.153	231.867	216.899	297.137	301.387	108.418	117.895	142.294	136.374	193.383	133.962	144.419	115.771	188.298	202.598	121.691	117.466	30.719
57.000	311.223	301.793	277.967	281.954	225.971	286.012	276.726	303.344	232.178	216.923	297.352	301.673	108.489	117.490	141.912	136.421	193.288	133.103	142.986	115.723	187.558	202.240	121.381	117.537	44.751
58.000	311.056	301.864	278.373	282.169	225.732	286.705	278.039	303.440	232.655	217.400	297.519	301.960	108.442	117.537	141.363	135.992	193.264	132.411	141.530	115.484	187.033	202.025	121.262	117.466	50.933
59.000	311.748	301.960	279.161	282.360	226.114	287.445	279.256	303.846	233.419	217.495	297.591	301.745	108.370	117.585	141.029	135.992	193.121	131.790	140.241	115.508	186.460	201.835	121.071	117.227	39.066
60.000	311.127	302.628	279.304	282.670	225.994	287.922	279.757	303.846	234.183	217.615	297.806	301.840	108.298	117.490	140.527	135.872	193.097	131.217	139.405	115.198	185.839	201.476	120.856	117.227	28.283
61.000	311.652	302.127	279.423	282.789	226.520	288.471	281.094	304.061	234.541	217.997	297.997	302.007	108.394	117.346	140.169	135.729	192.930	130.644	138.498	115.031	185.219	201.262	120.832	117.299	37.442
62.000	311.461	302.175	279.972	283.124	226.185	288.734	281.834	303.989	235.257	217.925	297.830	302.151	108.203	117.466	139.859	135.681	193.025	130.310	137.663	115.126	184.741	201.142	120.784	117.060	50.482
63.000	311.581	302.366	279.614	283.052	226.400	289.880	282.431	304.347	235.305	218.546	298.235	302.103	108.155	117.394	139.596	135.538	192.906	129.784	137.114	115.007	184.097	200.975	120.593	116.941	45.383
64.000	311.294	302.509	280.163	282.813	226.567	290.071	283.076	304.204	236.021	218.498	298.045	302.318	108.060	117.466	139.525	135.562	192.954	129.617	136.660	114.864	183.834	200.880	120.569	117.012	31.035
65.000	311.414	302.270	280.569	282.789	226.520	290.166	283.482	304.108	236.236	218.570	298.450	302.533	108.107	117.203	139.143	135.490	192.834	129.092	135.872	114.649	183.476	200.498	120.402	116.941	31.080
66.000	311.700	302.055	280.975	282.885	226.591	290.405	284.126	304.347	236.499	219.023	297.973	302.103	108.155	117.155	138.904	135.442	192.715	128.830	135.442	114.816	183.142	200.545	120.474	117.012	45.338
67.000	311.199	302.294	281.620	283.410	226.830	291.050	284.389	304.323	237.096	218.713	298.021	302.007	108.107	117.132	138.522	135.442	192.763	128.734	135.204	114.673	182.783	200.378	120.163	116.964	50.617
68.000	311.724	302.748	281.620	283.243	226.400	290.763	284.795	304.275	237.406	218.761	298.235	302.342	107.845	117.251	138.594	135.156	192.739	128.519	134.607	114.720	182.473	200.378	120.020	116.821	39.112
69.000	311.461	302.437	281.309	283.792	226.281	290.954	284.986	304.395	237.669	219.167	298.856	302.461	107.940	117.179	138.283	135.323	192.667	128.257	134.416	114.553	182.234	200.307	120.068	116.917	28.102
70.000	311.867	302.007	281.524	283.004	226.735	291.408	285.678	304.634	237.692	218.880	298.379	302.413	107.630	117.155	138.164	135.132	192.595	128.209	133.986	114.601	181.805	200.068	120.163	116.821	37.126
71.000	312.010	302.389	281.715	283.124	226.448	291.646	286.108	304.538	237.883	219.167	298.880	302.389	107.964	117.084	137.997	135.060	192.643	127.922	133.700	114.720	181.590	200.068	120.116	116.702	50.121
72.000	311.175	302.437	281.906	283.625	226.639	291.384	285.726	304.395	238.552	219.286	299.023	302.342	107.869	117.108	137.973	135.323	192.595	127.851	133.509	114.410	181.351	199.925	119.901	116.773	45.789
73.000	311.796	302.461	282.360	283.458	226.758	291.646	286.251	304.848	238.456	219.405	298.785	302.485	107.988	117.132	137.806	135.156	192.643	127.636	133.222	114.529	181.184	199.877	119.972	116.654	31.261
74.000	311.676	302.628	281.978	283.076	226.544	291.861	286.657	304.562	238.719	219.405	299.095	302.700	107.940	117.060	137.687	134.965	192.476	127.373	132.888	114.291	180.945	199.805	119.996	116.821	30.719
75.000	311.867	302.700	282.049	283.649	226.567	291.646	286.633	304.562	239.555	219.572	298.808	302.437	107.916	117.012	137.567	134.965	192.524	127.206	132.721	114.410	180.659	199.758	119.901	116.678	45.248
76.000	312.178	302.533	282.407	283.840	226.878	292.172	287.110	304.920	239.077	219.620	298.689	302.413	107.821	117.060	137.472	135.108	192.452	127.134	132.530	114.458	180.325	199.638	119.758	116.702	50.617
77.000	311.843	302.628	282.527	283.959	226.735	292.172	286.943	305.230	239.626	219.549	299.214	302.748	108.012	116.893	137.281	134.869	192.476	126.991	132.387	114.267	180.181	199.734	119.829	116.582	38.119
78.000	311.342	302.843	282.145	283.601	226.973	292.172	287.254	304.729	239.387	219.525	299.023	302.700	107.534	117.084	137.376	135.084	192.476	127.039	132.243	114.362	180.038	199.662	119.543	116.678	28.328
79.000	311.772	302.461	282.240	283.744	226.472	292.816	287.588	304.466	239.698	219.954	299.310	302.604	107.821	116.917	137.161	134.774	192.381	126.872	132.029	114.243	180.038	199.447	119.519	116.702	38.029
80.000	312.249	302.700	282.598	283.458	226.926	292.697	287.922	304.729	240.247	219.549	298.832	302.748	107.701	116.917	137.042	134.917	192.333	126.753	131.861	114.291	179.823	199.495	119.543	116.463	50.797
81.000	311.366	303.273	282.933	283.625	226.902	292.315	287.421	304.896	240.151	219.883	299.668	302.461	107.916	116.893	136.899	134.846	192.261	126.609	131.790	114.100	179.608	199.280	119.638	116.487	44.932
82.000	311.915	302.962	282.407	283.840	227.236	292.864	287.922	304.992	240.151	219.835	299.381	302.461	107.630	116.917	136.970	134.917	192.404	126.609	131.575	114.434	179.465	199.328	119.495	116.654	30.358
83.000	312.369	302.628	282.718	283.697	226.997	292.721	288.256	304.896	240.319	220.074	299.668	302.915	107.511	116.964	136.851	134.798	192.237	126.490	131.503	114.291	179.322	199.376	119.352	116.439	31.171
84.000	312.154	302.342	282.646	283.888	226.997	293.127	288.400	304.992	240.533	219.931	299.286	302.915	107.821	116.941	136.708	134.774	192.333	126.490	131.384	114.171	179.202	199.304	119.614	116.463	45.925
85.000	312.130	302.461	282.837	283.482	227.116	293.031	288.280	304.968	240.390	220.193	299.620	303.082	107.606	116.750	136.779	134.702	192.357	126.466	131.384	114.004	179.202	199.232	119.399	116.582	50.482
86.000	312.225	302.843	283.004	283.577	226.687	292.792	288.280	304.944	241.273	219.763	299.214	302.867	107.558	116.988	136.732	134.869	192.333	126.418	131.360	114.028	178.868	199.232	119.376	116.678	37.984
87.000	312.010	302.724	283.124	283.888	226.926	292.697	288.352	305.016	240.533	219.931	299.381	302.962	107.630	116.893	136.612	134.798	192.285	126.394	131.026	114.123	178.844	199.137	119.280	116.463	28.148
88.000	311.987	302.819	283.028	283.529	226.878	292.959	288.543	304.825	240.677	220.217	299.787	302.819	107.749	116.750	136.588	134.941	192.237	126.203	130.811	114.219	178.582	199.185	119.399	116.415	38.029
89.000	312.058	303.058	283.052	283.529	226.639	293.031	288.614	305.230	240.987	219.931	299.787	303.130	107.773	116.845	136.612	134.846	192.190	126.036	130.835	114.004	178.582	199.041	119.471	116.463	50.752
