-----------------------------------------------------
BloodHound 307 VOC Analyser V2017.1
RoboScientific Ltd 
Espace North
Wisbech Road
Littleport
Cambridgeshire, UK
CB6 1RA 
-----------------------------------------------------
Date = 24/02/2021
Time = 12:18:40
Data is protected by RoboScientific Limited
-----------------------------------------------------
Name of the experiment = "1481N"
-----------------------------------------------------
Repeat No. = 4/5
-----------------------------------------------------
Experimental Time (in sec) and Flow Profile :
-----------------------------------------------------
Baseline = 2.00
Absorb = 4.00
Pause = 1.00
Desorb = 5.00
Flush = 18.00
Wait = 5.00
Higher Flow (V) = 4.00
Medium Flow (V) = 3.00
Low Flow (V) = 1.00
-----------------------------------------------------
Total Profile Time = 35 in sec
-----------------------------------------------------
Acquired data point per second = 4
--------------------------------------------------
Total data point stored  = 120
-----------------------------------------------------
Acquired sensor responses from 24 sensors
-----------------------------------------------------

Data Points	 Sen-1	 Sen-2	 Sen-3	 Sen-4	 Sen-5	 Sen-6	 Sen-7	 Sen-8	 Sen-9	 Sen-10	 Sen-11	 Sen-12	 Sen-13	 Sen-14	 Sen-15	 Sen-16	 Sen-17	 Sen-18	 Sen-19	 Sen-20	 Sen-21	 Sen-22	 Sen-23	 Sen-24	Humidity (%r.h.)
0.000	312.703	303.106	284.675	284.198	227.689	294.272	290.691	305.493	243.876	221.124	300.480	303.488	107.367	116.487	135.228	134.320	191.569	124.890	128.877	113.431	175.860	198.468	118.612	115.818	29.140
1.000	312.822	303.440	285.033	284.055	227.498	294.344	290.524	305.493	243.995	220.718	299.978	303.440	107.152	116.391	135.060	134.249	191.712	124.771	128.734	113.527	175.956	198.397	118.540	115.890	42.360
2.000	312.583	303.201	284.723	284.007	227.451	294.463	290.787	305.302	243.923	221.029	300.241	303.177	107.296	116.391	135.037	134.273	191.641	124.890	128.758	113.503	175.812	198.468	118.540	115.914	51.384
3.000	312.297	303.512	284.819	284.222	227.522	294.416	290.691	305.493	244.425	220.981	300.169	303.583	107.152	116.606	135.108	134.297	191.688	124.795	128.734	113.550	175.789	198.397	118.588	115.747	41.277
4.000	312.178	303.416	284.795	284.389	227.594	294.750	290.668	305.636	244.019	220.862	300.169	303.535	107.152	116.582	134.965	134.344	191.569	124.867	128.806	113.527	175.812	198.492	118.540	115.914	28.418
5.000	312.560	303.106	284.508	284.532	227.713	294.296	290.596	305.302	244.258	220.695	300.360	303.535	107.367	116.368	135.060	134.416	191.712	124.795	128.734	113.479	175.598	198.492	118.540	115.842	35.547
6.000	312.369	303.464	284.270	284.007	227.570	294.440	290.500	305.159	243.947	220.790	300.551	303.344	107.224	116.463	135.037	134.297	191.664	124.699	128.686	113.455	175.741	198.444	118.564	115.818	49.308
7.000	312.894	303.034	284.532	284.198	227.594	294.631	291.073	305.541	244.234	221.053	299.835	303.440	107.272	116.606	135.108	134.297	191.664	124.747	128.662	113.431	175.717	198.349	118.516	115.890	47.549
8.000	312.774	303.440	284.651	284.174	227.666	294.845	291.217	305.612	244.281	220.862	300.145	303.034	107.367	116.439	134.941	134.368	191.641	124.676	128.639	113.479	175.645	198.349	118.588	115.795	32.569
9.000	312.607	303.130	284.580	284.508	227.236	294.702	290.835	305.374	243.971	221.315	300.527	303.201	106.914	116.344	134.941	134.511	191.521	124.628	128.710	113.574	175.717	198.349	118.516	115.723	29.727
10.000	311.414	303.106	284.532	283.816	227.666	294.535	290.930	305.469	244.043	220.456	300.002	303.392	107.749	116.511	135.084	134.273	191.521	124.819	128.710	113.574	175.741	198.421	118.492	115.890	43.623
11.000	303.321	302.318	284.795	284.699	227.928	293.819	290.787	305.445	243.159	220.623	299.740	302.819	116.773	116.893	134.965	134.320	191.450	125.057	128.830	113.670	176.457	198.779	119.018	116.248	51.203
12.000	288.424	298.928	284.317	283.673	227.928	292.983	290.142	305.326	240.223	219.334	298.832	300.360	132.172	120.283	135.228	134.320	191.020	125.965	129.808	113.956	179.059	199.710	119.829	118.731	39.608
13.000	272.213	295.251	284.293	284.484	228.310	291.384	288.447	304.681	237.239	218.427	296.899	297.495	147.857	124.580	135.442	134.153	190.853	127.875	131.360	114.553	181.972	200.903	121.596	121.644	28.554
14.000	257.006	290.620	283.577	284.389	228.740	289.331	286.561	303.941	233.658	217.114	293.294	294.296	162.014	128.686	135.824	134.416	190.757	129.784	133.151	115.126	185.386	202.002	125.248	124.341	37.577
15.000	242.181	285.917	282.885	284.031	228.477	286.060	282.193	301.912	230.769	215.800	288.113	291.336	177.340	133.437	136.135	134.559	190.590	133.294	137.352	116.773	188.704	203.267	130.047	127.469	49.399
16.000	230.459	281.429	283.338	283.601	228.573	281.715	276.845	299.907	228.143	215.347	283.625	288.065	190.208	138.092	136.636	134.917	190.328	137.209	142.676	119.280	191.211	204.055	135.275	131.145	44.210
17.000	219.501	275.842	282.861	282.837	228.931	278.421	270.423	297.090	228.262	214.368	278.683	284.628	200.641	143.177	137.066	135.323	190.280	140.742	149.003	121.835	191.330	204.508	140.671	135.060	32.614
18.000	223.321	270.996	281.954	282.455	229.170	275.126	264.455	295.036	230.339	214.583	273.144	280.307	196.463	147.928	137.663	135.920	190.375	144.156	155.019	124.079	188.537	204.198	145.040	138.522	33.562
19.000	230.817	265.768	281.261	281.333	228.716	270.924	257.818	292.339	234.326	216.159	267.701	276.678	188.346	153.228	138.116	136.684	190.351	148.048	161.297	126.514	184.574	202.909	151.271	142.676	44.345
20.000	238.051	260.993	280.593	280.689	228.334	267.296	251.945	290.405	238.027	217.448	262.163	272.548	181.829	158.791	139.214	137.734	190.757	151.605	167.433	129.092	180.348	201.309	157.096	147.140	46.376
21.000	244.401	256.457	279.471	279.137	228.167	263.237	245.595	287.325	242.658	219.883	256.027	268.036	175.932	164.019	140.074	139.023	191.020	155.783	173.568	131.742	176.529	199.304	162.825	151.056	38.164
22.000	249.701	250.799	278.468	278.373	227.952	259.346	240.199	284.842	246.717	221.721	250.799	264.383	169.725	168.698	141.339	140.265	191.426	159.865	179.393	134.488	172.160	197.036	168.340	155.090	33.652
23.000	254.356	245.213	276.821	276.940	226.926	254.881	234.613	281.930	250.847	224.299	244.210	259.775	165.022	173.735	142.604	141.411	192.046	163.923	184.765	137.376	168.507	194.696	173.926	158.815	39.608
24.000	259.990	240.724	275.747	275.914	225.803	250.441	228.907	278.922	254.308	226.185	238.695	255.979	161.083	178.534	144.037	142.700	192.977	168.459	190.256	139.978	164.735	192.381	179.943	163.470	44.706
25.000	262.736	236.427	274.362	274.529	225.254	246.740	224.037	276.558	257.340	228.621	233.371	251.849	157.621	183.213	145.565	143.536	194.100	172.972	195.293	142.915	161.655	190.566	185.863	167.576	41.638
26.000	261.733	237.478	273.192	274.792	224.323	245.284	223.583	277.561	257.484	229.170	232.846	252.924	158.170	182.473	146.042	143.345	194.696	174.070	196.439	141.530	161.560	189.587	186.317	166.478	35.908
27.000	260.659	238.600	273.073	275.818	224.156	245.809	223.798	278.850	257.937	230.554	233.347	253.926	159.531	181.781	146.233	143.154	195.007	173.831	196.129	140.551	161.751	188.609	185.768	165.451	37.307
28.000	259.632	239.411	273.335	275.436	223.965	245.189	224.204	279.352	257.507	230.793	233.061	254.977	160.390	180.921	146.018	142.676	195.054	173.759	195.747	139.668	161.846	188.203	185.792	164.974	43.398
29.000	260.229	239.173	273.550	276.296	224.276	245.690	224.132	279.184	258.080	231.796	232.679	255.048	159.937	180.683	146.090	142.533	195.174	173.759	195.938	139.668	161.202	187.630	186.150	164.950	43.533
30.000	263.762	235.520	272.595	274.672	223.416	243.374	221.697	277.442	261.065	233.515	229.170	251.205	155.830	184.598	146.949	143.368	195.627	175.884	198.206	142.103	157.979	185.720	190.137	168.006	38.209
31.000	256.385	236.499	271.378	273.598	222.772	239.292	219.358	273.312	264.455	235.042	224.204	252.948	163.541	183.380	148.000	144.538	196.654	179.680	200.641	145.708	155.401	184.144	194.720	166.454	36.314
32.000	228.883	248.937	270.041	272.261	221.554	235.353	220.933	270.853	266.532	235.854	223.583	262.354	191.450	170.990	149.480	146.018	197.561	183.906	198.492	148.621	153.037	183.595	195.317	157.669	40.420
33.000	252.112	261.065	268.036	271.235	220.623	231.748	223.941	269.540	267.391	235.305	226.902	270.900	166.454	158.242	151.151	147.379	198.731	187.415	196.153	149.289	151.987	183.667	191.497	148.143	45.338
34.000	270.113	271.115	266.794	270.495	219.716	229.480	225.994	271.139	267.845	234.613	233.538	278.779	149.194	148.048	152.655	148.406	199.853	189.946	193.574	148.191	151.724	184.455	185.195	140.265	41.683
35.000	281.572	279.017	265.314	269.874	218.737	228.525	227.331	273.216	266.245	233.324	241.106	284.198	138.045	140.742	154.231	149.241	200.856	191.402	192.309	145.589	152.130	185.624	177.675	135.610	32.750
36.000	289.760	284.270	264.574	269.850	217.854	228.286	228.215	276.367	265.935	232.034	249.438	287.994	130.119	134.989	155.281	149.432	201.381	191.545	191.712	142.819	153.706	186.961	169.581	131.193	35.141
37.000	295.609	288.328	263.476	268.943	217.305	229.170	227.594	279.829	263.428	230.148	256.767	290.620	124.341	130.692	156.499	149.528	201.978	190.399	191.975	139.119	155.830	188.609	161.608	128.209	46.556
38.000	299.453	291.718	262.664	269.492	217.495	230.936	226.424	282.956	261.065	228.740	264.240	293.150	119.853	127.803	157.191	149.194	202.097	188.298	193.049	135.824	158.624	190.328	154.684	126.132	46.827
39.000	302.557	293.795	262.163	270.017	217.376	233.538	224.371	286.490	257.030	226.305	270.781	294.702	117.418	125.654	157.621	148.501	202.049	185.362	195.102	133.007	162.228	192.214	148.740	124.604	34.915
40.000	304.252	295.920	262.210	270.709	218.045	237.310	222.246	289.116	253.186	225.207	275.532	296.111	115.413	124.007	157.597	147.809	201.691	181.852	197.299	130.166	165.738	193.670	143.488	123.171	30.268
41.000	305.684	297.257	262.521	271.736	218.331	241.560	220.026	291.121	249.367	223.559	279.877	297.663	113.789	122.646	157.406	146.687	201.166	177.913	199.829	127.755	169.486	195.484	139.023	122.145	41.819
42.000	307.689	297.686	262.927	272.452	218.856	245.642	219.310	293.413	245.427	221.793	282.933	297.925	112.500	121.787	156.905	145.565	200.593	173.568	200.450	125.439	173.425	197.227	135.681	121.214	50.617
43.000	307.116	299.023	263.834	273.526	219.525	249.701	222.557	295.036	241.894	220.408	286.323	298.450	111.545	120.760	155.926	144.443	199.758	168.937	197.346	123.864	177.293	198.444	132.649	120.736	41.277
44.000	309.026	299.358	264.884	275.293	220.336	254.404	227.069	296.827	238.528	218.976	288.089	298.904	110.853	120.522	154.947	143.392	198.874	164.783	192.691	122.575	180.587	200.068	130.381	120.211	29.050
45.000	309.217	300.312	266.484	276.224	221.411	258.486	232.345	297.400	235.401	217.830	290.262	299.381	110.829	119.638	153.634	142.366	198.110	160.605	187.391	121.333	183.619	201.476	128.877	119.758	35.818
46.000	308.907	300.098	267.319	276.773	221.745	262.187	237.287	298.785	233.013	216.803	291.527	300.098	110.447	119.280	152.321	141.459	197.227	156.809	181.852	120.307	186.054	202.503	127.421	119.376	49.444
47.000	309.599	300.647	268.537	278.349	222.581	265.768	242.992	299.453	230.841	215.633	292.386	300.121	109.611	119.065	151.199	140.718	196.606	152.989	176.194	119.399	188.179	203.553	126.323	118.850	46.466
48.000	309.838	301.196	269.993	278.325	223.273	269.205	247.982	300.002	229.217	215.108	293.341	300.527	109.659	118.779	150.172	140.002	196.081	150.005	171.778	118.874	189.778	204.079	125.344	118.827	32.163
49.000	310.459	301.244	270.590	279.256	223.774	272.500	252.589	300.885	228.024	214.726	294.105	301.172	109.397	118.492	148.931	139.262	195.484	146.806	166.741	118.206	190.542	204.341	124.508	118.588	30.404
50.000	310.387	301.339	271.760	279.471	223.965	274.816	257.006	301.626	227.904	214.655	294.941	300.838	109.564	118.397	147.642	138.427	194.983	143.965	162.252	117.776	190.972	204.389	123.912	118.397	44.616
51.000	311.390	301.697	272.810	279.734	224.944	277.633	261.375	302.151	227.880	214.846	295.013	300.862	108.919	118.254	146.376	138.021	194.481	141.482	157.979	117.227	191.020	204.174	123.362	118.182	50.662
52.000	310.483	301.578	274.076	280.736	224.562	279.543	264.908	302.294	228.453	215.466	295.824	301.267	109.229	118.206	145.422	137.710	194.267	139.620	154.541	116.821	190.924	203.983	122.885	118.039	39.518
53.000	310.315	301.578	274.625	281.023	225.016	280.975	267.749	302.437	229.193	215.657	296.660	301.076	108.800	118.110	144.705	137.496	194.076	137.806	151.438	116.678	190.471	203.744	122.551	117.895	28.238
54.000	310.960	301.530	275.914	281.381	225.183	282.765	270.375	302.819	230.125	215.896	296.493	301.411	108.633	117.895	143.774	137.090	193.909	136.421	149.170	116.248	189.707	203.434	122.336	117.848	37.171
55.000	310.865	301.864	276.535	281.572	225.350	283.720	272.500	303.273	230.053	216.111	296.684	301.506	109.038	117.943	143.225	136.755	193.598	135.442	146.949	116.105	189.277	202.909	122.121	117.800	50.301
56.000	311.032	301.864	277.084	281.954	225.421	285.368	274.505	303.392	231.342	216.421	297.042	301.339	108.824	117.752	142.509	136.517	193.407	134.225	145.111	115.962	188.609	202.575	121.691	117.728	45.654
57.000	311.175	302.079	278.421	282.455	226.233	285.606	275.818	303.273	231.724	217.066	297.376	301.530	108.513	117.776	142.151	136.421	193.407	133.389	143.512	115.651	187.821	202.360	121.476	117.585	30.855
58.000	311.939	301.840	278.301	282.575	226.233	286.705	277.585	303.488	232.560	217.328	297.257	301.387	108.871	117.657	141.578	136.278	193.336	132.602	142.246	115.580	187.463	201.978	121.285	117.442	31.441
59.000	311.151	301.888	278.253	282.384	225.947	287.516	278.468	303.607	233.467	217.257	297.615	301.840	108.298	117.752	141.148	136.087	193.192	132.052	140.909	115.413	186.818	201.835	121.023	117.346	46.105
60.000	311.772	301.960	279.017	282.551	226.448	287.851	279.662	304.132	233.753	217.877	297.663	301.745	108.537	117.418	140.695	135.896	192.954	131.503	139.931	115.317	186.197	201.620	120.927	117.418	49.985
61.000	312.106	301.793	279.208	283.100	226.162	288.638	281.214	303.917	234.088	218.164	297.877	301.673	108.274	117.466	140.337	135.753	193.049	130.906	138.904	115.246	185.577	201.381	120.808	117.227	37.217
62.000	311.676	302.366	279.543	282.384	226.185	289.116	281.500	304.084	235.090	217.734	297.973	302.055	108.227	117.466	139.955	135.824	193.025	130.429	138.092	115.078	185.338	201.190	120.832	117.155	28.509
63.000	311.819	302.461	279.901	283.171	226.472	289.665	282.073	303.941	234.899	218.355	297.854	301.745	108.060	117.490	139.907	135.657	193.001	130.095	137.543	115.102	184.717	201.047	120.593	117.108	39.427
64.000	311.509	302.604	279.829	283.076	226.233	289.999	282.384	304.156	235.520	218.498	298.140	301.936	108.203	117.370	139.501	135.681	193.001	129.737	136.875	114.959	184.264	200.880	120.474	117.155	51.158
65.000	310.936	302.366	280.259	282.909	226.233	289.689	283.052	304.204	236.547	218.355	298.426	302.771	107.821	117.299	139.334	135.490	192.882	129.522	136.326	114.935	184.001	200.784	120.354	116.964	43.217
66.000	311.724	302.485	280.760	282.789	226.281	290.286	283.434	304.323	236.618	218.474	298.761	302.461	108.203	117.251	139.143	135.633	192.882	129.235	136.015	114.816	183.619	200.903	120.354	117.132	29.276
67.000	311.867	302.461	280.903	283.673	226.376	290.763	284.461	304.180	236.212	218.928	298.379	302.055	108.298	117.155	138.904	135.323	192.763	128.758	135.419	114.792	183.165	200.498	120.378	116.964	33.246
68.000	311.724	302.366	280.689	282.885	226.066	290.596	284.556	304.395	236.761	218.928	298.641	302.413	107.964	117.251	138.618	135.395	192.739	128.662	134.989	114.864	183.046	200.354	120.235	116.845	48.045
69.000	312.010	302.533	281.524	283.219	226.520	290.644	284.914	304.562	237.430	218.761	298.426	302.413	108.155	117.155	138.379	135.395	192.715	128.328	134.726	114.720	182.473	200.163	120.307	116.893	48.632
70.000	311.891	302.366	281.309	283.434	226.090	291.790	285.248	304.371	237.716	219.167	298.498	302.366	108.179	117.084	138.427	135.395	192.715	128.209	134.320	114.625	182.187	200.211	120.140	116.964	34.239
71.000	312.106	302.580	281.405	283.410	226.567	291.241	285.535	304.777	237.740	219.238	298.832	302.127	108.203	117.132	138.140	135.132	192.667	127.994	134.153	114.649	182.020	200.211	119.949	116.869	29.185
72.000	312.010	302.509	281.643	283.338	226.615	291.718	285.941	304.634	238.146	219.071	298.761	302.509	108.036	117.036	137.901	135.251	192.643	127.898	133.843	114.529	181.781	199.901	119.972	116.869	41.999
73.000	311.724	302.437	281.691	283.410	226.353	291.336	286.442	304.586	238.647	219.047	298.737	302.580	107.725	116.988	138.069	135.299	192.643	127.755	133.580	114.458	181.542	199.901	119.805	116.773	51.339
74.000	311.915	302.198	281.858	283.004	226.400	291.933	286.418	304.299	238.958	219.405	298.785	302.413	107.940	117.060	137.687	135.156	192.524	127.564	133.461	114.553	181.375	199.949	119.805	116.726	41.232
75.000	312.560	302.652	282.360	283.720	227.164	291.837	286.752	304.466	238.958	219.143	298.522	302.318	108.036	116.988	137.639	135.037	192.524	127.588	133.127	114.410	180.993	199.925	119.949	116.726	28.509
76.000	311.843	302.652	281.858	283.697	226.544	292.243	286.896	304.586	239.244	219.023	299.214	302.795	107.964	117.108	137.591	134.965	192.476	127.397	132.983	114.434	180.754	199.805	119.829	116.678	34.870
77.000	311.867	302.485	281.811	283.935	226.520	291.718	287.063	304.657	239.149	219.477	298.761	302.676	107.988	117.084	137.472	134.917	192.548	127.302	132.769	114.434	180.707	199.686	119.543	116.726	49.399
78.000	312.464	302.461	282.240	283.291	226.376	292.315	286.919	305.016	239.531	219.405	299.167	302.724	107.773	116.988	137.305	134.893	192.524	127.158	132.554	114.434	180.539	199.614	119.781	116.750	47.594
79.000	311.438	302.437	282.646	283.028	226.353	291.861	287.158	305.278	239.340	219.763	298.904	302.700	107.773	116.988	137.161	134.893	192.452	126.967	132.506	114.458	180.301	199.567	119.495	116.654	32.930
80.000	311.891	302.724	282.360	283.673	226.735	292.315	287.492	304.968	239.364	219.787	299.190	302.580	107.988	116.893	137.209	134.989	192.357	127.039	132.291	114.314	180.062	199.567	119.614	116.606	29.907
81.000	312.345	302.891	282.384	283.840	226.663	292.052	287.421	304.657	239.722	219.740	299.596	302.389	107.725	117.084	137.185	134.941	192.428	126.824	132.124	114.171	180.014	199.471	119.614	116.726	44.165
82.000	312.392	302.461	282.073	283.458	226.806	292.601	287.540	305.087	239.865	220.002	299.238	302.485	107.534	116.893	137.161	134.798	192.285	126.824	132.076	114.314	179.871	199.399	119.495	116.439	51.203
83.000	312.225	302.771	282.694	283.410	226.949	293.270	287.874	304.801	240.390	219.907	298.880	302.413	107.773	116.869	136.946	134.941	192.476	126.705	131.957	114.195	179.775	199.328	119.543	116.678	39.472
84.000	312.154	302.485	282.813	283.888	226.926	292.649	287.755	304.777	240.342	219.859	299.310	302.843	107.701	116.988	136.899	134.917	192.404	126.681	131.885	114.410	179.584	199.447	119.519	116.582	28.102
85.000	312.178	302.652	282.551	283.888	226.854	292.482	288.376	304.872	240.438	219.811	299.644	302.652	107.415	116.964	136.732	134.798	192.237	126.609	131.575	114.147	179.537	199.352	119.447	116.487	37.442
86.000	311.700	302.461	282.789	283.458	226.926	293.007	287.922	304.586	240.223	219.668	299.023	302.724	107.964	116.917	136.827	134.750	192.357	126.562	131.551	114.195	179.346	199.256	119.328	116.511	50.572
87.000	312.082	302.843	282.885	283.768	227.260	292.721	288.447	305.016	240.605	219.668	299.429	302.461	107.487	116.845	136.899	134.750	192.357	126.490	131.479	114.076	179.179	199.256	119.423	116.368	45.203
88.000	312.130	303.177	283.267	283.864	226.830	292.792	287.898	304.896	240.844	219.954	298.928	302.843	107.630	117.084	136.517	134.822	192.381	126.466	131.360	114.219	179.226	199.185	119.304	116.511	30.900
89.000	312.560	303.010	282.813	283.864	227.164	293.103	288.376	304.848	240.772	219.931	299.405	302.557	107.701	116.869	136.564	134.559	192.333	126.394	131.288	114.267	178.964	199.232	119.209	116.391	31.125
