-----------------------------------------------------
BloodHound 307 VOC Analyser V2017.1
RoboScientific Ltd 
Espace North
Wisbech Road
Littleport
Cambridgeshire, UK
CB6 1RA 
-----------------------------------------------------
Date = 24/02/2021
Time = 12:24:36
Data is protected by RoboScientific Limited
-----------------------------------------------------
Name of the experiment = "1702N"
-----------------------------------------------------
Repeat No. = 1/5
-----------------------------------------------------
Experimental Time (in sec) and Flow Profile :
-----------------------------------------------------
Baseline = 2.00
Absorb = 4.00
Pause = 1.00
Desorb = 5.00
Flush = 18.00
Wait = 5.00
Higher Flow (V) = 4.00
Medium Flow (V) = 3.00
Low Flow (V) = 1.00
-----------------------------------------------------
Total Profile Time = 35 in sec
-----------------------------------------------------
Acquired data point per second = 4
--------------------------------------------------
Total data point stored  = 120
-----------------------------------------------------
Acquired sensor responses from 24 sensors
-----------------------------------------------------

Data Points	 Sen-1	 Sen-2	 Sen-3	 Sen-4	 Sen-5	 Sen-6	 Sen-7	 Sen-8	 Sen-9	 Sen-10	 Sen-11	 Sen-12	 Sen-13	 Sen-14	 Sen-15	 Sen-16	 Sen-17	 Sen-18	 Sen-19	 Sen-20	 Sen-21	 Sen-22	 Sen-23	 Sen-24	Humidity (%r.h.)
0.000	312.655	303.416	285.797	284.771	228.406	295.609	292.506	306.209	246.908	221.840	301.029	304.037	106.890	116.105	134.010	133.771	191.091	123.649	126.872	112.978	172.160	197.299	117.681	115.198	30.584
1.000	313.013	303.655	285.654	284.651	228.477	296.063	292.625	305.899	246.860	221.936	300.742	304.084	106.985	115.866	133.867	133.938	190.996	123.673	126.872	113.001	172.208	197.322	117.943	115.317	30.900
2.000	313.276	303.583	285.869	284.962	228.597	295.848	292.649	306.161	246.693	222.008	300.671	303.893	106.914	116.200	134.010	133.819	191.020	123.697	126.872	113.145	172.255	197.322	117.800	115.222	45.112
3.000	312.798	303.679	285.917	285.105	228.501	295.848	292.792	305.827	246.884	222.031	301.053	303.941	107.057	116.009	133.819	133.915	191.044	123.673	126.848	113.001	172.064	197.299	118.134	115.293	50.978
4.000	312.392	303.512	285.821	285.392	228.430	295.538	292.625	305.660	246.788	221.769	300.838	304.061	107.009	116.081	133.843	133.891	190.972	123.434	126.705	113.001	172.255	197.275	117.824	115.246	38.976
5.000	312.010	303.893	286.538	284.866	228.024	295.395	292.196	305.541	246.764	221.793	300.957	304.156	106.842	116.081	133.938	134.010	191.068	123.601	126.848	113.025	172.208	197.346	117.919	115.198	28.057
6.000	312.965	303.965	285.845	284.604	228.119	295.729	292.649	305.899	246.669	222.127	301.220	304.228	107.081	115.938	133.652	133.819	191.020	123.625	126.824	112.954	172.112	197.251	118.039	115.222	36.720
7.000	312.488	303.512	285.774	284.723	228.286	295.777	292.673	305.851	246.526	222.199	300.742	304.037	106.866	116.200	133.819	133.867	191.044	123.673	126.896	113.049	172.208	197.251	117.895	115.269	50.301
8.000	312.440	304.013	285.965	285.010	228.310	295.586	292.458	305.899	247.242	221.960	300.957	303.679	107.105	116.057	133.891	133.795	191.020	123.625	126.800	113.121	172.184	197.275	117.776	115.102	46.737
9.000	312.655	303.130	285.893	284.819	228.334	295.848	292.959	305.756	246.931	221.530	301.005	304.252	106.938	116.009	133.724	133.747	190.924	123.530	126.824	113.025	172.208	197.275	117.919	115.198	32.028
10.000	312.154	303.392	285.654	284.651	228.430	295.872	292.816	306.281	246.549	222.246	300.647	303.774	107.320	115.890	133.891	133.843	191.020	123.530	126.848	113.097	172.327	197.251	117.943	115.150	29.682
11.000	302.366	303.249	285.678	285.081	228.979	295.180	291.981	305.827	245.714	221.244	300.384	303.679	115.818	116.535	133.962	133.652	190.781	123.983	127.063	113.097	173.401	197.442	118.134	115.365	43.443
12.000	286.919	299.692	285.845	285.344	228.812	294.249	291.503	305.493	243.279	220.742	299.859	301.745	132.554	119.734	134.129	133.580	190.304	124.604	127.922	113.407	175.645	198.588	118.731	117.251	51.158
13.000	272.954	295.442	285.344	285.415	229.289	293.509	291.002	305.230	240.247	219.811	298.164	298.450	147.140	123.959	134.082	133.724	189.898	125.941	128.686	113.622	178.653	199.567	119.996	120.307	40.420
14.000	257.221	291.408	285.081	285.201	229.766	290.763	288.686	304.466	237.239	218.236	294.845	295.753	163.231	128.495	134.464	133.938	189.778	128.686	130.644	114.314	181.996	200.856	123.959	123.816	29.140
15.000	244.210	286.275	284.628	284.986	229.695	288.042	285.511	303.249	233.109	217.424	289.498	292.506	175.025	132.673	134.655	133.867	189.492	131.814	133.915	115.675	186.030	202.025	129.068	126.323	35.637
16.000	231.008	282.193	284.866	284.413	229.552	282.598	279.686	300.671	229.528	216.135	284.819	289.426	188.871	137.830	135.132	134.058	189.349	136.063	139.310	118.063	189.492	203.100	134.058	129.737	47.910
17.000	221.458	276.940	283.697	284.413	229.934	279.065	273.670	297.854	227.618	215.180	279.901	286.275	199.113	142.223	135.610	134.344	189.182	140.098	145.708	120.975	191.664	203.864	138.904	133.270	46.150
18.000	222.390	272.333	283.697	283.816	230.101	275.603	266.914	295.156	228.955	215.108	275.030	282.312	198.230	147.188	136.206	134.965	189.158	143.559	152.584	123.935	189.444	204.532	144.132	136.851	34.915
19.000	228.907	266.866	282.336	282.694	229.862	272.452	260.563	292.673	232.774	215.084	269.922	278.444	190.781	151.915	136.803	135.681	189.182	147.140	158.671	126.275	185.648	204.270	148.764	140.742	32.118
20.000	235.830	262.903	281.787	282.073	229.910	267.964	253.759	290.166	237.740	215.777	263.810	273.741	183.882	157.072	137.376	136.660	189.182	150.841	165.141	128.710	181.590	203.243	154.470	144.729	41.458
21.000	242.849	256.767	280.879	280.832	229.862	264.765	248.555	287.731	241.059	217.281	258.224	270.017	177.078	162.348	138.260	137.830	189.540	154.756	171.348	131.312	178.176	201.811	159.984	148.883	46.737
22.000	248.340	252.064	280.402	280.068	229.790	261.232	242.706	285.248	245.499	219.262	252.685	266.293	172.303	167.194	139.358	139.071	189.755	158.671	177.221	133.771	173.568	199.901	166.096	153.348	41.007
23.000	252.948	247.266	279.352	278.253	228.883	256.433	236.714	282.670	248.388	221.220	247.528	262.545	166.430	172.208	140.718	140.480	190.351	162.754	182.616	136.326	169.892	197.728	171.826	157.215	33.923
24.000	258.176	242.968	277.537	277.131	228.310	252.709	231.843	280.020	252.279	222.986	240.939	257.961	161.703	177.006	142.008	141.530	191.044	166.693	187.606	138.856	166.168	195.580	177.197	161.274	37.442
25.000	261.184	238.433	276.081	275.914	227.355	248.292	227.045	276.988	255.574	225.469	235.353	253.735	158.958	181.423	143.368	142.557	191.975	170.942	192.691	141.626	163.661	193.527	182.879	165.499	43.578
26.000	260.587	239.292	275.317	275.460	226.448	247.576	226.090	279.113	255.908	226.567	235.424	254.523	159.483	180.826	144.180	142.366	192.786	172.136	193.598	139.931	163.661	192.739	183.810	164.640	43.488
27.000	259.537	240.509	275.436	276.821	226.567	247.982	227.188	280.092	255.669	227.045	235.114	255.741	160.772	179.728	144.180	141.984	192.954	171.706	192.977	138.952	163.637	191.999	183.643	163.661	37.893
28.000	258.534	240.939	275.436	276.558	225.421	247.767	227.307	280.832	254.977	227.451	235.663	256.481	161.297	179.107	144.180	141.650	193.073	171.420	192.739	138.045	163.661	191.259	183.667	163.016	35.141
29.000	259.035	240.939	275.365	277.442	225.899	248.173	227.140	281.596	256.075	228.358	235.281	256.839	161.488	178.964	144.514	141.602	193.407	171.420	192.906	137.901	163.303	190.280	184.001	162.825	40.239
30.000	262.592	237.454	274.004	275.962	225.612	246.263	224.538	279.017	259.035	230.578	231.247	253.735	156.761	182.020	145.040	142.127	193.789	172.900	194.744	139.811	160.557	188.585	187.128	165.356	44.390
31.000	258.844	237.119	273.813	275.174	224.658	242.300	220.933	275.484	261.279	231.891	226.615	253.401	160.987	182.043	145.971	143.321	194.649	177.054	198.850	144.419	157.406	187.081	192.739	165.618	40.961
32.000	228.525	248.650	272.213	274.099	223.655	238.242	219.310	272.882	263.858	232.727	225.254	262.927	189.946	171.300	147.355	144.992	195.508	181.303	200.808	146.591	155.257	186.006	193.909	156.666	35.682
33.000	253.449	262.330	270.948	272.643	222.199	234.660	220.647	271.664	265.386	232.727	228.835	272.667	166.764	157.955	148.812	146.018	196.797	184.502	199.376	147.475	154.255	186.030	189.993	147.833	36.404
34.000	270.232	271.855	269.277	271.378	221.435	231.796	222.270	272.548	265.863	232.751	234.637	279.089	149.146	147.212	150.172	147.069	197.824	187.367	197.466	146.472	153.849	186.675	183.619	139.811	44.526
35.000	282.336	279.853	267.988	270.924	220.265	230.793	223.201	275.054	265.051	231.342	242.777	284.723	137.543	139.214	151.772	147.785	198.946	189.086	196.630	143.918	154.350	187.845	175.884	134.416	46.331
36.000	290.071	285.821	267.391	270.829	220.074	230.912	223.703	277.752	263.118	229.719	251.157	288.925	128.949	134.106	152.918	148.000	199.614	189.253	196.248	140.647	155.544	188.895	167.982	130.525	37.262
37.000	296.182	289.307	266.269	270.733	219.143	231.581	223.201	281.691	260.969	228.239	259.107	291.455	123.267	129.880	153.777	147.928	200.116	187.988	196.606	137.543	157.883	190.566	160.056	127.636	30.539
38.000	299.859	292.601	265.624	271.068	219.334	233.920	222.222	284.532	258.367	227.212	265.863	293.628	119.949	127.230	154.470	147.713	200.139	185.648	197.943	134.368	161.130	192.595	152.942	125.535	39.247
39.000	303.130	294.774	265.028	271.426	219.191	236.403	220.647	287.349	254.905	225.421	272.142	295.920	116.511	125.034	154.613	147.117	200.116	182.593	199.519	131.432	164.568	194.076	146.854	123.816	49.624
40.000	305.350	296.397	264.693	271.999	219.644	240.414	218.856	290.286	250.608	223.201	276.845	296.397	114.744	123.291	154.732	146.138	199.877	178.940	200.784	128.591	168.268	195.556	141.793	122.599	43.714
41.000	306.233	298.092	265.314	273.526	220.002	244.401	220.050	292.673	246.597	221.793	281.429	297.113	113.455	122.073	154.493	145.207	199.471	174.953	199.686	126.562	172.112	197.394	137.639	121.763	31.035
42.000	307.451	298.737	265.624	274.004	220.313	248.889	223.822	295.013	242.825	220.217	284.699	298.498	111.832	120.999	153.586	144.299	198.755	170.465	196.129	124.485	176.218	198.659	134.631	120.760	31.983
43.000	308.262	299.501	266.985	275.126	221.267	252.876	228.239	295.848	239.435	219.381	286.705	299.119	111.664	120.354	152.989	143.225	198.086	165.929	191.044	123.052	179.370	200.187	131.694	120.307	45.744
44.000	309.146	299.405	267.415	276.773	221.936	257.507	233.825	297.400	235.806	217.806	288.829	299.549	110.996	119.758	152.011	142.032	197.275	161.799	185.577	121.715	182.807	201.763	129.617	119.781	49.850
45.000	310.005	300.217	268.776	276.964	222.891	261.351	239.101	298.546	233.371	216.206	290.381	299.740	110.065	119.232	151.127	141.268	196.773	157.502	180.134	120.689	185.338	202.718	127.994	119.352	38.164
46.000	309.910	300.265	269.563	278.564	223.464	265.457	244.544	299.429	230.841	215.418	291.933	300.169	109.898	118.970	149.981	140.337	196.009	153.873	175.025	119.734	187.678	203.697	126.848	119.113	28.599
47.000	310.363	300.647	270.829	278.803	223.726	268.513	249.534	300.503	229.766	214.750	292.888	300.121	109.635	118.707	148.859	139.573	195.317	150.650	170.035	118.898	189.516	204.222	125.750	118.659	37.984
48.000	310.602	301.363	272.285	279.208	224.777	271.688	253.974	300.623	228.239	214.774	293.843	300.384	109.659	118.445	147.642	138.880	194.863	147.475	165.332	118.373	190.495	204.389	124.771	118.516	50.166
49.000	310.244	301.172	273.264	280.354	224.825	274.434	258.558	301.076	228.071	214.965	294.511	301.649	109.301	118.445	146.806	138.498	194.625	144.514	160.510	117.681	191.091	204.365	124.198	118.015	45.834
50.000	310.626	301.602	273.885	280.283	225.063	277.036	262.616	301.697	228.167	215.347	295.395	301.602	109.062	118.182	145.804	137.949	194.338	141.936	156.809	117.179	191.091	204.150	123.386	118.063	31.622
51.000	310.984	301.721	274.768	280.474	225.493	279.208	266.364	302.509	228.382	215.395	296.039	300.981	108.680	118.182	144.777	137.328	193.837	139.764	153.109	116.941	191.020	203.816	123.004	117.967	30.629
52.000	311.032	301.554	275.460	281.429	225.374	281.285	269.396	302.986	229.337	215.586	295.968	301.053	108.680	118.158	143.965	137.137	193.765	137.925	150.101	116.559	190.328	203.386	122.718	117.895	44.390
53.000	311.223	301.721	276.439	281.333	225.803	283.004	271.975	303.010	229.910	216.469	296.517	301.291	108.561	117.848	143.297	136.684	193.431	136.206	147.188	116.248	189.659	202.766	122.336	117.848	50.888
54.000	311.247	302.222	276.964	281.524	225.589	284.484	274.290	303.607	230.483	216.564	296.994	301.626	108.609	117.585	142.342	136.421	193.216	135.156	145.350	115.986	189.086	202.551	121.930	117.585	40.285
55.000	311.151	301.817	277.680	282.169	225.947	285.224	275.914	303.321	231.748	217.233	296.970	301.530	108.418	117.537	141.912	136.230	193.240	134.010	143.536	115.675	188.346	202.240	121.667	117.418	28.509
56.000	310.936	302.413	278.444	282.718	226.400	286.060	277.442	303.368	232.464	217.305	297.352	301.912	108.298	117.561	141.459	136.063	193.049	132.912	141.960	115.532	187.534	202.025	121.381	117.346	35.682
57.000	311.533	302.055	278.373	282.336	225.732	286.919	278.970	304.061	232.655	217.591	297.567	301.697	108.418	117.513	140.862	135.896	192.977	132.172	140.432	115.365	186.961	201.596	121.190	117.299	49.354
58.000	311.748	302.103	279.137	282.909	226.520	287.851	280.259	303.965	232.870	218.092	297.663	301.769	108.203	117.418	140.384	135.681	192.954	131.670	139.549	115.174	186.126	201.285	120.999	117.227	47.368
59.000	311.294	302.724	279.805	283.124	226.711	288.614	281.070	303.679	233.610	218.188	297.734	302.007	108.346	117.490	140.313	135.777	192.906	130.930	138.403	115.055	185.720	201.142	120.904	117.203	33.020
60.000	311.867	302.461	279.853	283.076	226.711	289.068	282.002	304.299	234.541	218.427	297.925	302.031	108.418	117.394	139.740	135.490	192.810	130.405	137.639	115.007	185.195	200.856	120.760	117.132	29.546
61.000	311.843	302.485	279.996	283.028	226.400	289.474	282.670	304.013	234.875	218.570	297.925	302.079	108.083	117.322	139.525	135.514	192.763	129.999	136.827	115.055	184.622	200.856	120.665	116.988	42.676
62.000	311.605	302.366	280.474	283.267	226.615	289.951	283.315	304.228	235.783	218.904	298.164	302.318	108.370	117.108	139.095	135.395	192.691	129.665	136.063	114.959	184.073	200.784	120.641	117.036	51.294
63.000	311.438	302.437	280.951	283.124	226.830	289.999	283.458	303.965	236.356	218.832	298.522	302.628	108.155	117.203	139.119	135.466	192.786	129.092	135.681	114.935	183.643	200.641	120.378	116.988	41.413
64.000	311.915	302.724	281.739	283.601	226.615	290.739	284.365	304.705	236.284	218.785	297.973	301.984	108.179	117.346	138.665	135.251	192.619	128.901	135.060	114.935	183.285	200.378	120.402	116.845	28.779
65.000	311.509	302.175	281.261	283.338	226.878	290.906	284.795	304.610	236.833	219.167	298.355	302.127	108.203	117.155	138.427	135.156	192.548	128.591	134.774	114.792	183.070	200.211	120.283	116.845	34.239
66.000	311.939	302.246	281.429	283.219	226.782	290.691	285.224	304.323	237.048	219.310	298.522	302.485	107.869	117.227	138.283	135.204	192.572	128.376	134.273	114.744	182.712	200.020	120.307	116.797	48.226
67.000	312.130	302.389	280.856	283.100	226.758	290.978	285.750	304.825	236.976	219.191	299.047	302.151	108.060	117.012	138.116	135.204	192.572	128.066	133.938	114.601	182.306	199.972	120.068	116.726	48.541
68.000	311.819	302.795	282.025	283.601	226.782	291.670	286.275	304.443	237.191	219.501	298.307	302.294	108.394	116.964	137.997	134.917	192.452	128.113	133.795	114.625	182.115	199.996	120.163	116.750	34.690
69.000	311.915	303.034	282.049	283.768	227.164	291.599	286.179	304.514	237.597	219.596	298.689	302.079	108.036	116.941	137.782	134.965	192.428	127.922	133.461	114.482	181.781	199.805	120.092	116.845	28.915
70.000	311.796	302.604	281.954	283.267	226.591	291.646	286.752	304.634	237.764	219.334	298.689	302.485	107.630	116.845	137.878	135.084	192.404	127.660	133.031	114.482	181.542	199.710	120.140	116.726	41.187
71.000	311.414	302.485	281.882	283.935	227.212	291.861	286.514	304.443	238.528	219.620	298.832	302.366	107.940	116.941	137.639	134.893	192.381	127.564	132.936	114.458	181.184	199.710	119.925	116.654	51.339
72.000	312.249	302.676	282.384	283.744	226.949	292.100	287.373	304.610	238.504	219.859	298.880	302.389	108.083	116.941	137.448	134.869	192.237	127.325	132.530	114.553	180.897	199.638	119.805	116.702	42.405
73.000	311.700	302.533	282.455	283.816	226.878	292.028	286.991	304.610	239.005	219.549	298.713	302.652	107.821	117.132	137.472	134.941	192.428	127.182	132.506	114.505	180.826	199.662	119.638	116.606	29.230
74.000	312.440	302.652	282.694	283.577	226.782	292.386	287.612	305.063	239.005	219.859	298.594	302.342	108.012	116.988	137.233	134.774	192.357	126.967	132.196	114.434	180.492	199.519	119.853	116.606	33.291
75.000	311.652	302.795	282.503	283.076	227.140	291.933	287.301	304.657	239.149	219.931	299.167	302.557	107.630	116.893	137.114	134.678	192.237	126.967	131.933	114.362	180.492	199.328	119.638	116.630	47.729
76.000	312.106	303.177	282.598	283.601	227.045	292.625	287.922	304.538	239.602	219.931	298.880	302.485	107.988	116.726	136.994	134.798	192.333	126.872	131.790	114.267	179.966	199.328	119.638	116.630	49.173
77.000	311.963	302.962	282.909	283.553	227.021	292.601	287.994	305.207	239.531	219.668	298.976	302.652	107.606	117.060	136.899	134.631	192.261	126.776	131.766	114.314	179.943	199.304	119.638	116.487	35.818
78.000	312.440	302.867	282.909	283.935	227.355	292.816	288.185	304.514	240.032	220.074	299.238	302.676	107.725	116.964	136.803	134.917	192.166	126.562	131.312	114.171	179.680	199.208	119.686	116.582	28.463
79.000	312.058	302.700	282.885	283.649	226.711	292.983	288.495	304.729	239.793	219.954	299.238	303.321	107.749	117.012	136.779	134.774	192.190	126.633	131.336	114.123	179.584	199.161	119.567	116.535	39.653
80.000	311.867	303.464	282.933	284.007	227.427	293.174	288.519	304.825	240.414	219.644	299.190	302.748	107.773	116.988	136.660	134.702	192.190	126.514	131.121	114.243	179.441	199.161	119.543	116.487	51.203
81.000	312.178	302.604	282.956	283.649	226.639	292.577	288.447	304.968	239.913	220.241	299.620	302.986	107.749	116.797	136.517	134.822	192.285	126.347	130.883	114.076	179.226	199.065	119.471	116.702	43.939
82.000	312.201	303.249	283.338	284.079	226.854	293.509	288.829	305.016	240.080	220.122	299.095	302.389	107.892	116.726	136.493	134.655	191.999	126.347	130.763	114.100	179.179	199.065	119.543	116.439	29.772
83.000	311.748	303.153	283.506	283.601	226.806	292.912	288.591	304.872	240.486	220.122	299.405	302.771	107.511	116.726	136.564	134.726	192.190	126.251	130.811	114.052	179.059	198.994	119.280	116.439	32.299
84.000	312.201	302.748	283.219	283.315	226.949	293.007	288.877	305.087	240.653	220.241	299.787	302.628	107.439	116.821	136.421	134.583	192.046	126.156	130.644	114.076	178.940	199.041	119.447	116.439	46.917
85.000	311.963	302.748	283.338	284.079	227.164	293.246	289.092	304.944	240.820	220.145	299.501	303.201	107.869	116.678	136.206	134.631	192.070	126.203	130.429	113.885	178.749	198.946	119.447	116.487	50.121
86.000	311.867	302.962	283.458	284.007	227.236	292.864	289.116	305.159	241.154	220.193	299.190	302.867	107.701	116.773	136.302	134.488	192.166	126.132	130.429	114.004	178.415	199.089	119.328	116.272	37.081
87.000	312.082	302.939	283.601	284.007	226.926	293.270	288.949	304.777	240.605	219.931	299.596	303.153	107.773	116.869	136.278	134.631	192.046	125.989	130.381	113.885	178.510	198.898	119.376	116.391	28.238
88.000	311.963	303.034	283.744	284.293	227.284	293.485	289.259	305.159	240.677	220.480	299.023	302.819	107.725	116.845	136.278	134.511	192.094	126.060	130.381	113.980	178.248	198.922	119.256	116.248	38.209
89.000	312.321	302.628	283.458	283.935	227.236	293.556	289.402	305.230	241.464	220.480	299.525	302.771	107.582	116.797	136.159	134.535	191.999	125.798	130.286	114.028	178.176	198.755	119.113	116.248	51.068
