-----------------------------------------------------
BloodHound 307 VOC Analyser V2017.1
RoboScientific Ltd 
Espace North
Wisbech Road
Littleport
Cambridgeshire, UK
CB6 1RA 
-----------------------------------------------------
Date = 24/02/2021
Time = 12:02:09
Data is protected by RoboScientific Limited
-----------------------------------------------------
Name of the experiment = "1727N"
-----------------------------------------------------
Repeat No. = 3/5
-----------------------------------------------------
Experimental Time (in sec) and Flow Profile :
-----------------------------------------------------
Baseline = 2.00
Absorb = 4.00
Pause = 1.00
Desorb = 5.00
Flush = 18.00
Wait = 5.00
Higher Flow (V) = 4.00
Medium Flow (V) = 3.00
Low Flow (V) = 1.00
-----------------------------------------------------
Total Profile Time = 35 in sec
-----------------------------------------------------
Acquired data point per second = 4
--------------------------------------------------
Total data point stored  = 120
-----------------------------------------------------
Acquired sensor responses from 24 sensors
-----------------------------------------------------

Data Points	 Sen-1	 Sen-2	 Sen-3	 Sen-4	 Sen-5	 Sen-6	 Sen-7	 Sen-8	 Sen-9	 Sen-10	 Sen-11	 Sen-12	 Sen-13	 Sen-14	 Sen-15	 Sen-16	 Sen-17	 Sen-18	 Sen-19	 Sen-20	 Sen-21	 Sen-22	 Sen-23	 Sen-24	Humidity (%r.h.)
0.000	311.891	302.700	284.675	283.697	226.735	294.010	289.880	305.063	243.661	219.859	299.931	303.273	107.582	116.821	134.965	134.774	192.285	125.296	129.713	113.622	175.430	199.232	118.707	116.177	51.429
1.000	312.201	302.771	284.580	284.031	227.188	293.771	289.689	305.278	244.019	219.716	300.026	302.939	107.582	116.750	134.989	134.869	192.404	125.439	129.617	113.503	175.645	199.256	118.827	116.511	40.285
2.000	312.130	302.843	285.177	283.935	227.140	294.129	290.023	305.016	244.091	220.050	300.002	303.153	107.200	116.726	134.893	134.869	192.142	125.248	129.641	113.694	175.430	199.137	118.707	116.296	28.102
3.000	312.798	302.843	284.413	283.744	226.902	294.201	290.095	305.374	244.377	219.978	299.835	302.724	107.725	116.726	134.869	134.726	192.190	125.153	129.379	113.646	175.407	199.185	118.731	116.415	37.713
4.000	312.034	302.437	284.341	283.482	226.472	294.010	290.047	305.207	243.828	219.859	300.217	303.010	107.463	116.750	134.917	134.941	192.285	125.368	129.570	113.574	175.263	199.185	118.850	116.368	50.933
5.000	312.798	303.130	284.771	283.720	227.021	293.914	290.214	305.541	243.565	220.002	299.740	302.557	107.391	116.797	134.893	134.774	192.333	125.105	129.331	113.694	175.168	199.208	118.588	116.129	43.849
6.000	312.727	302.867	284.556	283.864	227.188	294.559	290.190	305.183	244.162	220.169	300.336	302.962	107.725	116.893	134.917	134.846	192.285	125.320	129.641	113.694	175.407	199.185	118.564	116.224	29.546
7.000	312.369	302.939	284.986	283.649	227.140	294.392	290.214	305.517	244.353	220.074	299.931	302.748	107.343	116.606	134.869	134.774	192.214	125.177	129.379	113.670	175.144	199.089	118.516	116.224	32.930
8.000	312.416	302.437	284.126	283.553	226.949	294.511	290.119	305.350	244.091	220.408	300.074	302.986	107.606	116.797	134.822	134.750	192.357	125.129	129.331	113.646	175.120	199.208	118.659	116.272	48.000
9.000	312.392	303.034	285.153	284.270	227.212	293.962	290.286	305.421	244.353	219.835	300.503	303.010	107.654	116.582	134.917	134.941	192.357	125.057	129.307	113.527	175.072	199.137	118.659	116.368	48.316
10.000	311.676	303.082	284.508	283.625	227.140	294.416	290.119	305.016	243.876	220.026	300.074	302.939	108.155	116.917	134.941	134.893	192.190	125.129	129.355	113.670	175.311	199.137	118.683	116.272	33.020
11.000	301.291	301.840	284.771	284.150	226.997	293.723	289.617	304.944	242.658	219.620	299.859	302.485	116.964	117.370	134.846	134.631	192.094	125.559	129.737	113.789	176.266	199.447	119.041	116.630	29.817
12.000	286.394	298.999	284.293	283.911	227.355	292.005	288.877	305.469	239.722	218.498	298.617	299.763	132.458	120.641	134.965	134.798	191.760	126.538	130.501	114.147	179.059	200.474	120.235	119.209	44.436
13.000	271.330	294.965	284.437	283.625	227.976	291.050	287.397	304.419	237.310	217.376	296.517	296.588	148.692	125.057	135.156	134.750	191.330	127.922	132.100	114.696	182.091	201.548	122.097	122.217	50.030
14.000	255.908	290.071	283.840	284.174	228.024	288.614	285.105	303.440	233.801	216.254	292.577	293.914	164.974	129.784	135.777	134.774	191.091	130.429	134.726	115.556	185.768	202.957	126.180	125.416	38.390
15.000	240.438	286.036	283.219	283.243	228.191	285.010	280.498	301.769	230.125	215.490	288.185	290.548	179.393	133.867	135.872	134.678	190.972	134.320	139.143	117.084	189.158	203.888	131.121	128.543	29.411
16.000	227.140	280.139	283.291	283.386	228.573	281.023	275.150	299.214	227.928	214.607	283.028	287.516	191.641	138.904	136.684	135.275	190.805	137.472	144.562	119.686	191.330	204.437	135.729	131.885	38.931
17.000	219.095	275.627	282.479	282.885	228.453	277.561	268.203	296.922	228.048	214.344	277.633	283.338	201.572	143.846	137.114	135.848	190.924	141.244	150.889	122.217	190.160	204.532	140.886	135.657	48.632
18.000	225.374	270.017	281.285	281.882	228.286	274.362	262.378	294.583	231.366	215.204	272.476	279.590	194.458	149.170	137.663	136.517	190.900	145.087	157.263	124.532	187.487	203.935	146.496	139.883	41.819
19.000	232.798	265.171	281.452	281.047	228.095	270.304	255.979	291.885	235.448	217.042	266.937	275.389	187.296	154.470	138.498	137.496	190.996	149.026	163.756	127.254	183.643	202.121	151.796	143.631	32.118
20.000	239.364	259.799	280.354	279.638	227.833	266.269	249.367	289.116	239.722	218.546	260.969	271.521	179.250	159.674	139.310	138.331	191.211	152.584	169.605	129.498	179.202	200.187	157.764	147.809	36.946
21.000	246.406	254.666	279.710	279.137	227.833	262.569	243.565	287.015	243.852	221.124	254.857	266.818	173.306	164.687	140.241	139.787	191.450	156.761	175.884	132.458	175.239	198.134	163.756	152.130	45.338
22.000	252.566	250.441	278.325	277.657	227.116	258.319	238.385	284.317	247.695	223.130	248.841	262.569	168.221	169.844	141.435	140.886	192.070	160.677	181.375	134.846	170.871	195.795	169.725	156.403	43.308
23.000	255.956	244.663	277.131	276.463	226.615	253.926	233.085	281.333	251.826	225.517	243.207	258.391	162.778	175.383	142.963	142.127	192.977	165.189	187.224	137.758	167.123	193.598	176.266	160.868	35.818
24.000	260.468	239.555	274.935	274.768	225.183	249.581	227.260	278.373	256.170	228.215	237.239	254.571	158.433	179.823	143.965	142.963	193.765	169.605	192.142	140.838	163.207	190.900	181.470	164.855	36.404
25.000	263.977	235.162	273.885	274.744	224.419	245.475	222.557	275.556	259.322	229.957	231.438	249.940	155.759	184.502	145.636	144.228	194.863	174.094	196.773	143.607	160.557	188.847	187.128	168.794	42.676
26.000	263.691	235.711	272.404	274.601	223.488	243.900	221.960	276.463	259.035	231.438	230.721	251.276	156.332	184.479	146.520	143.798	195.580	175.502	198.444	142.461	159.817	188.394	188.609	168.627	43.533
27.000	262.187	236.761	272.858	275.221	223.416	244.496	221.864	277.919	259.465	232.011	231.318	251.921	157.573	183.309	146.711	143.631	195.938	175.550	198.206	141.411	160.414	187.200	188.155	167.576	38.480
28.000	261.518	237.955	272.548	275.269	223.058	244.210	221.936	278.158	259.250	232.130	230.698	252.303	158.409	182.449	146.591	143.058	195.938	175.048	197.967	140.886	159.841	186.794	188.227	166.955	35.637
29.000	261.112	237.669	273.025	275.556	222.986	244.568	222.031	278.922	259.561	233.037	230.674	252.971	159.029	182.306	146.663	142.891	196.129	175.120	198.182	140.480	160.199	186.054	188.346	166.645	40.826
30.000	265.768	235.138	272.452	274.792	222.795	242.515	220.241	276.702	261.637	234.207	227.976	250.321	153.730	184.860	147.212	143.464	196.391	176.815	199.495	142.175	157.191	184.526	191.139	168.961	43.984
31.000	263.046	232.321	270.733	273.550	221.960	238.337	219.549	272.977	265.529	236.547	222.581	248.555	155.830	187.176	148.549	145.135	197.346	180.826	199.949	146.185	154.159	182.712	196.415	170.274	39.924
32.000	235.878	243.685	269.635	272.190	221.053	234.446	222.819	269.802	267.415	237.024	220.814	257.889	182.043	176.123	150.005	146.687	198.397	185.099	196.678	149.385	151.939	182.139	198.325	162.085	35.908
33.000	247.743	257.340	267.821	270.709	219.668	230.912	225.947	269.110	269.707	237.382	224.228	267.558	172.590	162.515	151.676	147.761	199.232	188.298	193.312	150.578	150.530	181.733	195.222	152.178	38.705
34.000	265.362	267.916	266.341	269.826	218.474	228.239	228.716	269.420	269.229	236.427	229.170	275.651	153.634	151.462	153.252	148.812	200.617	191.020	191.044	149.790	149.790	182.545	189.205	143.536	45.654
35.000	278.397	276.773	264.669	269.659	217.567	226.663	230.292	271.593	269.468	234.971	236.952	281.596	141.363	142.939	154.828	149.504	201.500	192.882	189.134	147.546	150.339	183.404	181.423	137.328	42.811
36.000	286.991	282.670	263.905	268.346	217.519	226.591	231.294	274.481	268.274	233.801	245.881	286.251	132.220	137.185	156.236	150.005	202.336	193.479	188.537	144.252	151.247	185.171	173.712	133.485	32.795
37.000	293.986	287.206	262.091	268.632	216.755	227.093	231.318	278.970	265.219	232.321	254.046	289.641	126.203	132.482	157.287	149.767	202.670	192.404	188.489	140.909	153.419	187.009	165.189	129.856	34.464
38.000	298.164	291.145	261.900	269.277	216.493	229.289	230.363	281.500	263.285	230.220	260.921	291.527	121.930	129.307	158.242	149.647	202.980	190.709	189.301	137.543	156.260	188.632	157.120	127.182	46.466
39.000	301.339	293.318	261.232	269.635	216.708	231.414	228.310	284.747	259.489	228.621	267.845	294.034	118.516	126.585	158.671	149.050	202.909	187.558	190.877	134.129	159.388	190.709	150.721	125.583	47.233
40.000	303.488	295.227	260.921	270.232	216.779	235.114	225.923	287.755	255.478	226.329	274.171	295.036	115.938	124.771	158.815	148.239	202.694	184.431	193.359	131.312	162.873	192.285	145.254	124.079	34.103
41.000	305.159	297.137	261.614	271.664	217.209	238.814	223.082	290.429	251.826	225.398	278.373	296.373	114.983	123.577	158.695	147.379	202.193	180.539	196.224	128.782	167.433	193.718	140.766	122.718	30.584
42.000	306.352	297.615	261.972	273.312	217.782	243.541	220.551	292.315	248.388	223.392	281.691	297.257	113.598	122.073	157.979	146.114	201.524	176.075	199.495	126.371	171.062	195.651	137.018	122.527	43.894
43.000	306.973	298.116	262.234	273.694	218.570	248.077	219.549	294.034	244.186	221.673	284.962	298.522	112.142	121.333	157.167	145.016	200.856	171.348	200.211	124.628	175.263	197.203	133.938	121.214	50.075
44.000	308.358	299.668	263.929	275.030	219.286	252.566	222.986	295.800	240.319	220.145	287.516	298.785	111.903	120.856	156.069	143.703	199.996	167.146	196.654	123.171	178.200	198.707	131.002	120.736	38.209
45.000	308.955	299.620	265.266	275.627	220.456	256.743	228.024	297.113	236.690	218.570	289.235	299.381	110.972	120.378	154.899	142.915	199.089	162.658	191.903	121.739	181.900	200.139	129.379	120.235	28.915
46.000	309.647	300.145	266.532	277.107	221.053	260.802	233.276	298.450	234.135	217.782	290.572	299.525	110.519	119.710	153.300	141.817	198.182	158.624	186.388	120.713	184.789	201.548	128.018	119.758	40.194
47.000	309.408	299.835	267.367	277.633	222.079	264.311	238.504	299.334	231.676	216.302	292.315	299.405	110.232	119.543	152.154	141.124	197.466	154.804	181.017	120.068	186.746	202.622	126.657	119.399	50.843
48.000	310.697	300.503	268.991	277.895	222.676	267.677	243.923	300.289	229.957	215.824	292.983	299.811	110.017	119.185	151.032	140.169	196.558	151.247	175.621	119.161	189.086	203.768	125.607	119.256	41.367
49.000	310.363	300.790	270.232	279.471	223.201	270.900	248.985	301.029	228.334	214.822	293.819	300.312	110.184	118.827	149.432	139.501	196.009	148.358	170.871	118.659	190.423	204.389	124.843	118.779	28.960
50.000	309.838	300.814	271.354	279.161	223.631	273.861	253.926	301.220	227.976	214.678	294.798	300.647	109.588	118.946	148.501	139.095	195.651	145.159	165.571	118.134	190.924	204.532	124.198	118.827	36.089
51.000	310.124	301.124	272.428	280.092	223.774	276.917	258.247	301.817	227.928	214.655	294.989	300.766	109.253	118.731	147.331	138.451	195.126	142.557	160.963	117.299	191.497	204.652	123.506	118.636	49.895
52.000	310.769	301.554	274.099	280.498	224.705	278.516	262.401	302.031	228.501	214.726	295.586	301.053	109.134	118.468	145.899	138.021	194.935	140.337	157.191	117.012	191.235	204.389	123.076	118.540	45.473
53.000	310.936	300.909	274.267	280.641	224.395	280.903	265.815	302.533	229.026	214.822	296.111	300.838	109.349	118.445	145.183	137.734	194.649	138.761	153.897	116.821	190.805	204.270	122.694	118.445	30.855
54.000	310.721	301.649	275.078	280.736	224.514	282.336	268.704	302.795	229.408	215.275	296.779	301.172	108.609	118.206	144.228	137.376	194.505	137.185	151.080	116.559	190.208	204.102	122.384	118.254	31.712
55.000	311.127	301.793	276.176	281.476	224.849	283.410	270.662	302.939	230.220	215.323	296.684	300.838	108.609	118.086	143.273	137.018	194.147	136.039	148.907	116.177	189.396	203.649	122.121	118.158	47.007
56.000	310.888	302.318	277.346	281.739	225.398	284.461	272.524	302.724	230.674	215.991	296.445	301.076	108.680	118.206	142.819	137.018	194.123	134.846	146.758	115.986	188.871	203.291	121.787	117.967	49.218
57.000	311.199	301.817	277.513	281.596	225.493	285.487	274.362	303.249	231.605	216.373	296.994	301.196	108.656	118.110	142.270	136.660	193.956	134.106	145.111	115.818	188.131	203.100	121.787	118.063	35.006
58.000	311.103	301.626	277.776	282.193	225.350	286.227	275.962	303.392	232.058	216.564	297.185	301.721	108.442	117.991	141.506	136.541	193.909	133.127	143.583	115.651	187.510	202.933	121.333	117.895	29.140
59.000	311.581	302.079	279.017	282.455	225.326	287.015	277.370	303.488	232.273	216.612	297.137	301.148	108.251	117.967	141.172	136.326	193.694	132.482	142.294	115.556	186.818	202.766	121.166	117.681	42.495
60.000	310.984	302.222	279.232	282.360	225.708	287.254	278.373	303.464	233.586	216.469	297.901	301.435	108.298	117.800	140.766	136.302	193.646	131.838	140.909	115.317	186.197	202.455	121.071	117.752	51.023
61.000	311.557	302.031	279.280	282.837	225.565	288.662	279.614	303.846	234.016	217.281	297.830	301.267	108.298	117.800	140.337	136.183	193.670	131.336	140.050	115.436	185.768	202.145	120.927	117.657	39.833
62.000	311.461	302.294	279.877	282.264	225.541	288.352	280.092	303.774	234.374	217.137	297.591	301.602	108.489	117.704	140.122	136.254	193.550	130.835	139.310	115.246	185.290	202.073	120.951	117.657	28.328
63.000	311.342	302.318	280.116	282.121	225.589	288.424	280.903	303.774	235.090	217.281	298.188	302.222	108.083	117.704	139.787	135.944	193.479	130.429	138.403	115.198	184.646	201.930	120.904	117.585	38.074
64.000	311.533	302.031	280.259	282.431	225.827	289.450	281.667	303.870	235.305	217.376	297.949	301.697	108.418	117.704	139.405	136.039	193.503	129.952	137.878	115.078	184.168	201.739	120.665	117.466	50.888
65.000	311.461	302.413	280.498	282.837	225.851	289.951	282.073	303.846	235.568	217.519	298.307	301.435	108.036	117.633	139.143	135.801	193.336	129.617	137.376	115.007	183.953	201.524	120.569	117.442	43.172
66.000	311.676	302.342	280.951	282.933	226.162	289.713	282.765	304.180	236.356	217.758	298.116	301.793	107.940	117.657	138.928	135.896	193.264	129.498	136.851	115.007	183.524	201.357	120.426	117.346	29.005
67.000	312.010	302.222	281.070	282.813	225.756	290.310	283.482	304.156	236.809	217.734	297.877	301.745	107.964	117.537	138.737	135.801	193.359	129.259	136.397	115.007	183.237	201.309	120.307	117.227	34.509
68.000	311.581	302.127	281.118	282.240	226.018	290.286	283.768	304.514	237.024	217.782	298.331	301.697	108.155	117.752	138.474	135.896	193.240	128.877	136.039	114.887	182.831	201.118	120.283	117.179	48.902
69.000	311.963	302.795	281.572	283.482	226.329	290.691	284.079	304.132	236.857	218.236	298.307	301.649	108.036	117.490	138.403	135.801	193.145	128.639	135.562	114.792	182.497	201.118	120.354	117.299	46.872
70.000	312.178	302.103	281.381	282.789	226.090	290.763	284.771	304.466	237.119	218.045	298.522	301.936	108.298	117.466	138.021	135.610	193.192	128.591	135.395	114.792	182.258	201.023	120.283	117.275	31.712
71.000	311.438	302.007	281.858	282.789	225.994	290.906	284.508	304.347	237.812	218.164	298.617	301.888	108.131	117.466	137.997	135.657	193.049	128.424	134.869	114.553	181.829	200.927	120.163	117.299	31.080
72.000	311.533	302.891	281.882	283.362	225.684	291.145	284.842	304.371	238.218	218.450	298.522	301.840	107.964	117.537	137.782	135.633	193.192	128.185	134.511	114.768	181.638	200.784	119.996	117.251	45.879
73.000	311.963	302.318	281.858	283.147	226.257	291.241	285.296	304.228	238.027	218.761	299.286	302.604	107.940	117.322	137.639	135.586	193.145	128.161	134.344	114.529	181.447	200.760	120.092	117.275	49.850
74.000	311.485	302.366	282.384	283.243	225.947	291.217	285.439	304.657	238.671	218.116	298.641	302.007	107.940	117.609	137.639	135.514	193.192	127.875	134.082	114.577	181.184	200.784	119.925	117.227	35.863
75.000	312.010	302.485	282.312	283.338	226.448	291.408	285.463	304.753	238.242	218.761	298.952	301.721	107.701	117.203	137.519	135.610	193.121	127.731	133.915	114.625	180.945	200.641	120.020	117.132	28.824
76.000	310.865	302.485	282.216	282.885	225.971	291.360	285.726	304.729	238.934	218.689	299.167	302.270	107.773	117.322	137.448	135.657	193.121	127.755	133.843	114.505	180.563	200.569	119.758	117.012	40.736
77.000	311.509	302.795	282.551	283.338	226.496	291.623	285.535	304.490	239.674	218.474	298.546	301.721	107.845	117.418	137.209	135.538	193.025	127.660	133.509	114.482	180.396	200.569	119.877	116.988	51.294
78.000	312.106	302.843	282.861	283.291	226.472	292.100	286.156	304.538	239.483	218.976	298.450	302.055	107.845	117.513	137.233	135.562	192.977	127.445	133.270	114.482	180.277	200.593	119.805	116.988	40.646
79.000	312.178	302.580	282.360	283.649	226.138	292.005	286.466	304.801	239.459	218.641	299.310	301.936	108.155	117.155	137.090	135.395	193.001	127.493	133.246	114.505	180.062	200.378	119.853	117.012	28.283
80.000	311.867	302.533	283.028	283.028	226.257	292.052	286.514	304.729	240.032	218.737	299.047	302.246	107.630	117.370	137.090	135.323	193.025	127.206	132.936	114.434	180.038	200.307	119.758	117.084	36.720
81.000	312.273	302.246	282.169	282.933	225.875	292.291	287.158	304.920	239.459	219.214	299.310	302.198	108.131	117.251	136.875	135.228	192.930	127.158	132.983	114.482	179.775	200.139	119.590	116.964	50.572
82.000	311.748	302.557	282.837	283.768	226.424	292.554	286.657	304.657	239.602	219.358	299.238	302.103	107.964	117.227	136.851	135.419	192.882	126.920	132.554	114.386	179.537	200.283	119.662	116.917	44.481
83.000	312.512	302.246	282.861	283.362	226.711	292.625	286.991	304.634	239.674	219.047	299.692	302.175	107.988	117.299	136.612	135.395	192.882	126.848	132.458	114.314	179.513	200.354	119.686	116.941	29.952
84.000	311.748	302.413	283.004	283.124	226.472	292.482	287.325	304.848	240.199	219.119	299.047	301.984	107.845	117.227	136.732	135.299	192.977	126.896	132.434	114.434	179.537	200.139	119.543	116.869	33.156
85.000	311.581	302.580	283.338	283.338	226.496	292.219	286.800	304.825	240.748	218.785	299.119	302.389	107.725	117.346	136.779	135.347	192.882	126.753	132.315	114.458	179.298	200.092	119.614	116.797	48.045
86.000	311.270	302.724	283.338	283.434	226.376	292.219	287.206	304.681	240.915	219.023	299.214	302.819	107.701	117.322	136.708	135.419	192.930	126.872	132.291	114.267	178.940	200.139	119.352	116.893	48.271
87.000	311.819	302.461	283.195	283.362	226.639	292.625	287.254	304.992	240.653	218.856	299.405	302.413	108.227	117.346	136.564	135.180	192.906	126.729	132.148	114.434	178.988	200.187	119.519	116.917	33.291
88.000	312.225	302.366	282.694	283.434	226.520	292.506	287.636	304.705	240.891	219.334	299.286	302.127	107.988	117.155	136.469	135.228	192.954	126.681	132.005	114.291	178.892	199.996	119.447	116.964	30.043
89.000	311.867	302.485	283.195	283.100	226.448	292.792	287.707	305.421	240.700	219.692	299.167	302.007	107.797	117.203	136.397	135.299	192.858	126.562	131.861	114.219	178.653	199.996	119.614	116.845	44.842
