-----------------------------------------------------
BloodHound 307 VOC Analyser V2017.1
RoboScientific Ltd 
Espace North
Wisbech Road
Littleport
Cambridgeshire, UK
CB6 1RA 
-----------------------------------------------------
Date = 24/02/2021
Time = 11:52:38
Data is protected by RoboScientific Limited
-----------------------------------------------------
Name of the experiment = "289N"
-----------------------------------------------------
Repeat No. = 5/5
-----------------------------------------------------
Experimental Time (in sec) and Flow Profile :
-----------------------------------------------------
Baseline = 2.00
Absorb = 4.00
Pause = 1.00
Desorb = 5.00
Flush = 18.00
Wait = 5.00
Higher Flow (V) = 4.00
Medium Flow (V) = 3.00
Low Flow (V) = 1.00
-----------------------------------------------------
Total Profile Time = 35 in sec
-----------------------------------------------------
Acquired data point per second = 4
--------------------------------------------------
Total data point stored  = 120
-----------------------------------------------------
Acquired sensor responses from 24 sensors
-----------------------------------------------------

Data Points	 Sen-1	 Sen-2	 Sen-3	 Sen-4	 Sen-5	 Sen-6	 Sen-7	 Sen-8	 Sen-9	 Sen-10	 Sen-11	 Sen-12	 Sen-13	 Sen-14	 Sen-15	 Sen-16	 Sen-17	 Sen-18	 Sen-19	 Sen-20	 Sen-21	 Sen-22	 Sen-23	 Sen-24	Humidity (%r.h.)
0.000	311.796	303.106	285.344	283.052	226.496	293.843	290.262	304.992	244.759	219.692	299.740	302.915	107.630	116.797	134.559	135.371	192.715	125.296	128.853	113.527	175.454	199.638	118.922	116.702	51.474
1.000	312.846	302.795	285.010	283.792	226.544	294.010	290.524	305.469	244.329	219.907	299.859	302.437	107.582	116.964	134.607	135.323	192.715	125.439	129.140	113.718	175.359	199.567	118.803	116.511	41.864
2.000	311.628	302.533	285.105	283.482	226.353	293.604	290.381	305.039	244.640	219.883	299.883	302.771	107.367	116.845	134.559	135.299	192.834	125.225	128.782	113.741	175.287	199.614	118.779	116.582	28.599
3.000	311.987	302.628	285.248	283.816	226.949	294.058	290.310	305.063	244.496	219.716	299.644	302.389	107.821	117.060	134.655	135.180	192.763	125.416	128.925	113.598	175.216	199.543	118.779	116.606	35.096
4.000	313.013	302.795	284.699	283.482	226.185	294.034	290.572	305.039	244.186	219.620	299.978	302.676	107.558	116.964	134.559	135.299	192.786	125.344	129.092	113.837	175.072	199.614	118.612	116.439	49.489
5.000	311.605	302.604	284.938	283.100	225.947	294.177	290.572	304.872	244.353	219.596	300.265	302.891	107.105	116.893	134.464	135.275	192.739	125.439	128.853	113.694	175.287	199.519	118.683	116.535	47.098
6.000	312.321	302.724	285.153	283.792	226.424	294.129	290.381	305.445	244.711	219.835	300.265	302.819	107.511	117.084	134.631	135.251	192.786	125.368	129.116	113.813	175.144	199.543	118.803	116.511	32.028
7.000	312.392	303.130	284.819	283.243	226.305	294.177	290.691	305.517	244.926	219.907	300.098	302.795	107.320	116.893	134.750	135.538	192.906	125.296	128.853	113.646	175.216	199.543	118.659	116.535	30.313
8.000	312.631	302.700	285.201	283.506	226.472	294.105	290.453	305.589	244.592	219.763	300.050	302.628	107.487	117.012	134.488	135.204	192.834	125.248	128.877	113.646	175.168	199.376	118.731	116.511	44.571
9.000	312.130	303.249	285.081	283.124	226.329	293.867	290.333	305.254	245.022	219.859	300.241	302.843	107.534	116.845	134.344	135.251	192.810	125.201	128.710	113.574	175.025	199.423	118.779	116.654	50.978
10.000	312.130	302.342	285.272	283.219	226.496	294.105	291.288	305.445	244.472	220.074	299.740	302.819	108.561	116.869	134.702	135.299	192.763	125.201	128.591	113.622	175.192	199.543	118.874	116.702	38.886
11.000	302.867	301.673	285.033	283.649	226.687	293.986	290.405	305.087	243.159	218.976	299.167	302.055	118.086	117.728	134.511	135.347	192.739	125.678	128.997	113.741	176.338	199.949	119.328	117.084	28.102
12.000	286.967	298.689	285.153	283.458	226.878	292.219	289.116	304.777	241.345	217.949	299.143	300.002	132.339	120.904	134.702	135.132	192.166	126.466	130.190	114.123	178.797	200.808	120.044	118.946	38.119
13.000	271.664	293.771	284.246	283.768	227.427	291.193	288.089	304.204	237.406	217.400	296.349	296.588	148.119	125.177	135.037	135.371	191.808	128.137	131.360	114.625	182.067	201.835	122.026	122.455	50.166
14.000	256.385	289.713	283.840	282.885	227.236	289.378	285.893	303.392	234.207	216.230	292.530	294.296	164.138	129.808	135.251	135.347	191.617	130.572	134.010	115.532	185.959	203.100	125.702	124.962	43.849
15.000	241.560	285.511	284.532	283.147	227.857	285.368	281.118	301.578	230.148	215.204	288.042	290.763	178.892	134.082	135.633	135.442	191.521	133.986	137.997	117.060	189.205	204.126	130.883	128.710	31.171
16.000	229.289	280.498	283.338	282.956	227.498	281.524	276.081	299.549	228.430	214.416	283.028	287.301	190.996	138.832	136.254	135.777	191.330	137.591	143.177	119.423	191.378	204.532	135.610	131.766	33.787
17.000	219.047	275.460	282.551	282.025	227.546	277.895	270.017	297.304	228.382	214.416	277.991	283.553	200.999	143.679	136.732	136.111	191.354	141.148	149.146	122.049	190.137	204.723	140.814	135.562	45.879
18.000	224.801	270.447	282.073	281.787	228.024	274.553	264.383	294.463	231.438	215.347	272.691	279.877	195.413	148.859	137.352	136.755	191.187	144.753	155.138	124.532	187.439	203.721	146.185	139.238	46.556
19.000	231.891	265.505	281.333	280.569	228.119	270.638	258.200	292.100	235.496	217.114	267.415	275.938	187.654	154.111	137.997	137.591	191.450	148.907	161.655	127.230	183.547	202.240	152.154	143.750	36.720
20.000	237.907	259.990	280.593	279.519	227.785	267.009	252.231	289.164	239.340	218.355	261.470	272.094	180.683	159.101	138.976	138.832	191.617	152.178	166.669	129.570	179.393	200.402	157.239	147.570	32.795
21.000	245.093	254.834	278.993	278.015	226.902	262.807	246.669	287.254	243.350	220.480	255.144	267.128	174.428	164.425	139.907	139.811	192.023	156.308	172.375	132.005	175.454	198.277	163.732	151.796	41.052
22.000	249.987	249.868	278.397	277.824	226.782	258.438	240.844	284.102	247.767	222.915	249.223	262.736	169.056	169.438	141.100	140.909	192.548	160.557	178.200	134.822	170.895	196.129	169.295	156.045	45.744
23.000	255.598	245.595	277.203	276.320	226.138	254.762	236.021	281.882	251.969	225.398	243.589	259.155	164.258	174.428	142.581	141.984	193.097	164.926	183.834	137.615	167.337	193.670	175.430	160.223	40.871
24.000	260.897	240.629	275.245	275.556	224.896	249.892	230.793	278.564	255.407	227.021	237.764	254.857	159.746	179.131	144.013	143.225	194.100	169.032	188.752	140.408	163.995	191.139	181.494	164.305	34.825
25.000	263.476	235.997	274.267	274.720	223.679	245.809	226.042	275.723	258.462	229.552	232.321	250.823	156.594	183.452	145.589	144.013	195.150	173.234	193.598	142.795	160.796	188.943	186.508	168.459	38.435
26.000	262.282	236.833	273.073	274.863	223.130	245.308	224.777	277.776	259.035	231.032	231.963	251.849	157.955	183.118	146.496	143.798	195.890	174.476	195.031	141.721	160.510	188.060	187.391	167.719	43.669
27.000	261.184	238.098	272.858	275.198	222.986	244.687	225.063	278.206	258.725	231.151	232.082	253.210	159.197	181.661	146.400	143.368	196.176	174.332	194.696	140.790	160.677	187.391	187.105	166.669	42.856
28.000	259.895	238.910	273.001	275.651	222.867	245.642	225.326	278.850	258.271	232.034	232.369	253.306	160.080	181.136	146.496	143.249	196.344	174.285	194.625	140.169	160.629	186.723	186.961	166.263	36.991
29.000	259.441	238.671	273.097	276.129	223.010	245.356	225.063	279.423	259.656	233.133	232.082	253.544	160.319	180.874	146.544	143.201	196.558	174.189	194.744	139.883	160.319	186.078	187.152	166.168	36.404
30.000	264.073	235.210	272.381	274.625	222.270	242.730	222.724	277.346	261.470	234.231	228.621	250.560	155.377	183.929	147.260	143.583	196.893	176.194	196.869	142.199	157.478	184.359	190.686	168.364	42.135
31.000	258.128	235.639	271.306	273.335	221.793	238.982	220.193	273.574	264.908	235.520	223.153	250.680	161.178	183.643	148.501	145.063	197.681	180.229	200.044	145.875	154.446	182.951	196.081	168.268	43.262
32.000	228.549	247.815	269.731	272.357	220.909	235.162	220.862	270.232	267.176	236.570	222.509	259.847	190.447	171.491	149.958	146.257	198.564	184.192	199.256	148.788	152.536	182.449	196.797	158.791	39.427
33.000	253.783	260.826	267.988	271.402	219.692	231.676	222.891	269.778	268.179	236.594	225.899	269.731	166.382	159.029	151.867	147.666	199.734	187.630	196.654	149.504	151.032	182.282	193.073	149.432	34.374
34.000	270.757	271.569	265.935	270.781	218.546	229.408	224.825	270.662	268.728	235.663	232.774	277.179	149.599	148.573	153.157	148.644	200.975	190.184	194.529	148.525	150.578	182.974	186.532	142.223	38.705
35.000	281.142	278.230	264.622	269.969	217.639	228.286	226.472	272.906	268.274	234.350	239.578	283.076	137.734	141.053	154.684	149.170	201.667	191.760	193.240	146.066	151.223	184.264	178.630	136.135	47.278
36.000	289.235	283.816	263.977	269.635	216.923	227.809	227.284	276.224	266.269	232.870	248.292	287.039	130.501	135.442	156.069	149.313	202.288	191.760	192.524	142.867	152.488	185.887	170.274	132.076	43.398
37.000	294.702	288.256	262.783	269.922	216.779	228.812	226.926	279.710	263.977	231.247	256.385	290.023	124.914	131.790	157.191	149.480	202.694	190.900	192.667	139.358	154.995	187.152	162.587	129.570	32.253
38.000	298.785	291.527	261.685	269.683	216.541	231.294	226.018	282.956	261.279	229.814	263.523	292.267	120.808	128.328	158.146	149.050	202.885	188.632	193.574	136.111	157.883	189.229	155.090	126.967	33.517
39.000	301.840	293.628	261.088	270.399	216.421	233.897	224.634	286.036	258.725	227.976	269.683	294.010	117.895	126.180	158.480	148.286	202.909	185.362	195.341	133.198	161.059	190.996	148.788	125.320	46.150
40.000	304.347	295.681	261.781	271.497	216.827	237.096	222.079	289.068	254.284	226.400	275.269	295.323	115.604	124.413	158.480	147.522	202.766	181.733	197.442	130.119	164.855	192.739	143.464	123.983	48.361
41.000	305.827	296.493	261.685	272.428	217.090	241.250	220.050	291.861	250.608	224.371	279.686	296.302	114.219	123.124	158.218	146.281	202.049	178.128	199.352	127.660	168.722	194.362	139.262	123.004	35.998
42.000	306.400	297.830	262.831	273.049	218.140	245.595	219.763	293.676	246.573	223.297	283.482	297.137	113.264	122.193	157.382	145.398	201.357	173.664	199.734	125.678	172.900	196.176	135.801	122.073	29.591
43.000	308.215	298.546	263.691	274.481	219.047	250.465	222.652	295.466	242.276	221.482	285.869	297.663	112.643	121.500	156.332	144.490	200.689	169.032	196.558	124.007	176.505	197.704	132.864	121.524	41.052
44.000	307.666	299.190	265.386	275.532	219.716	254.690	228.095	296.159	238.552	219.572	288.137	297.997	111.855	120.808	155.257	143.177	199.686	164.783	191.927	122.551	180.301	199.352	130.739	120.832	50.482
45.000	309.074	300.002	265.744	276.535	220.480	259.107	232.560	297.663	236.045	218.856	289.474	298.880	111.092	120.259	153.658	142.270	198.755	160.438	186.723	121.309	182.974	200.450	128.973	120.378	41.638
46.000	309.289	300.121	267.892	277.107	221.172	262.401	238.122	298.474	233.419	217.472	291.264	299.549	110.686	119.972	152.512	141.339	198.158	156.905	181.661	120.450	185.983	201.811	127.612	120.092	29.230
47.000	309.217	299.716	268.107	278.301	221.697	266.150	243.255	299.238	230.626	215.944	292.339	299.429	110.614	119.567	151.175	140.671	197.418	153.013	176.171	119.567	188.083	203.076	126.371	119.734	35.096
48.000	309.695	300.121	269.826	278.659	222.413	269.038	248.077	300.121	229.002	215.442	293.628	299.477	110.208	119.352	149.790	140.098	196.773	149.910	171.229	118.827	189.516	203.959	125.583	119.495	48.632
49.000	310.435	300.694	270.900	278.826	222.748	272.810	253.091	300.647	228.239	214.774	293.652	300.312	109.993	119.041	148.644	139.477	196.224	147.188	166.764	118.325	190.829	204.461	124.652	118.874	47.233
50.000	310.172	300.790	272.070	279.352	223.321	274.744	257.221	301.148	227.785	214.416	295.013	300.169	109.778	119.018	147.403	138.856	195.747	144.109	162.085	117.872	191.235	204.747	124.103	119.232	32.614
51.000	310.005	300.575	273.503	280.402	223.416	277.704	261.279	301.435	227.713	214.511	295.466	300.384	109.182	118.827	146.185	138.283	195.484	141.864	157.955	117.346	191.211	204.962	123.339	118.898	30.223
52.000	310.674	301.291	274.314	280.307	224.180	279.495	265.099	302.270	228.071	214.559	295.562	300.193	109.158	118.803	145.207	138.069	195.007	139.764	154.279	117.012	191.044	204.652	122.909	118.707	43.894
53.000	310.650	300.957	275.842	280.832	224.586	280.999	268.012	302.198	228.668	214.750	296.111	300.885	109.038	118.659	144.085	137.830	194.935	138.045	151.366	116.726	190.829	204.246	122.599	118.636	50.752
54.000	310.721	301.411	276.463	280.879	224.825	282.742	270.542	302.437	229.361	215.228	296.326	300.718	109.206	118.468	143.368	137.472	194.768	136.899	149.003	116.463	190.208	204.222	122.431	118.659	39.518
55.000	310.674	301.411	276.773	281.333	224.801	283.744	272.643	303.058	230.578	215.395	296.612	300.862	108.824	118.445	142.915	137.257	194.696	135.586	146.758	116.153	189.516	204.031	122.073	118.492	28.373
56.000	310.674	301.196	277.824	281.548	224.729	284.747	274.386	302.962	231.151	215.514	297.042	301.315	108.537	118.421	142.175	137.066	194.553	134.488	144.944	115.938	188.919	203.673	121.811	118.373	36.991
57.000	311.509	301.220	277.680	281.500	224.658	285.678	276.487	303.512	232.225	215.824	297.090	300.790	108.967	118.182	141.482	136.875	194.410	133.724	143.464	115.914	188.060	203.291	121.739	118.349	50.436
58.000	311.032	301.721	278.349	281.834	224.968	286.132	277.418	303.321	232.655	216.135	297.925	301.435	108.824	118.182	141.077	136.875	194.314	132.888	141.936	115.604	187.534	203.076	121.548	118.182	45.609
59.000	310.960	301.602	278.922	282.193	225.087	287.278	278.301	303.034	233.300	216.421	297.400	301.148	108.513	118.301	140.742	136.708	194.123	132.363	141.053	115.675	186.961	202.885	121.190	118.063	30.900
60.000	310.888	301.745	279.566	282.169	225.063	287.445	279.280	303.583	233.562	216.732	297.352	301.076	108.752	118.158	140.265	136.636	194.147	131.718	139.668	115.460	186.460	202.718	121.047	118.110	31.486
61.000	311.676	301.506	279.590	282.551	225.326	288.089	280.808	303.822	234.422	216.994	297.519	301.005	108.704	118.086	139.764	136.397	194.028	131.217	138.928	115.174	185.935	202.527	120.975	117.943	46.421
62.000	310.745	301.578	279.972	282.193	225.326	288.710	281.047	303.822	235.066	216.923	298.212	301.435	108.728	118.039	139.549	136.302	193.932	130.811	138.283	115.246	185.290	202.336	120.689	117.919	49.985
63.000	311.461	301.673	280.187	282.360	225.445	288.686	281.978	303.774	235.830	217.137	298.235	301.315	108.370	118.063	139.286	136.326	193.885	130.310	137.782	115.293	185.051	202.216	120.784	117.824	37.487
64.000	310.745	301.960	281.166	282.360	225.254	288.853	282.527	303.893	236.093	217.352	297.877	301.649	108.465	117.991	138.976	136.230	193.956	130.190	136.994	115.126	184.264	202.073	120.808	117.800	28.328
65.000	311.509	302.127	281.094	282.598	225.708	289.617	283.076	304.180	235.926	217.495	298.092	301.435	108.561	117.872	138.785	136.206	193.861	129.832	136.421	115.007	183.858	201.978	120.569	117.681	39.202
66.000	310.912	302.031	281.166	282.407	225.302	289.546	283.458	303.893	236.761	217.663	298.045	301.482	108.346	118.015	138.713	136.206	193.861	129.426	136.039	114.983	183.571	201.858	120.617	117.800	50.888
67.000	311.628	301.793	281.906	282.169	225.612	289.832	283.888	304.252	237.119	217.376	297.877	301.411	108.179	117.824	138.283	136.087	193.718	129.379	135.705	114.816	183.165	201.787	120.545	117.704	43.262
68.000	311.342	302.055	281.452	282.551	224.801	289.975	284.174	303.965	237.716	217.782	298.498	301.984	108.322	117.919	138.260	136.111	193.598	129.044	135.347	114.887	182.974	201.500	120.522	117.704	29.366
69.000	310.745	301.697	281.548	282.503	225.326	290.095	284.556	304.084	237.955	217.901	298.307	301.960	108.513	117.800	137.997	136.087	193.694	128.901	134.917	114.911	182.593	201.453	120.020	117.561	33.607
70.000	312.154	301.936	281.978	282.503	225.732	290.524	284.938	304.538	238.098	217.925	298.474	301.554	108.083	117.872	137.878	136.159	193.813	128.639	134.535	114.864	182.258	201.453	120.354	117.657	47.910
71.000	312.106	302.413	282.455	282.980	225.493	291.002	285.463	304.299	238.194	217.997	298.212	301.482	108.203	117.704	137.639	136.015	193.670	128.400	134.249	114.840	182.115	201.214	120.163	117.561	48.361
72.000	311.461	302.342	282.121	283.171	225.660	291.050	285.678	304.228	238.576	218.259	298.594	301.578	108.298	117.776	137.543	135.896	193.694	128.328	134.082	114.792	181.805	201.047	120.235	117.513	33.787
73.000	312.034	302.151	282.145	283.004	225.827	291.121	285.893	304.753	238.862	218.307	298.498	301.435	107.988	117.752	137.496	135.992	193.574	128.257	133.819	114.744	181.494	201.094	119.972	117.299	29.276
74.000	311.724	301.912	282.431	282.789	225.851	291.217	286.132	304.634	239.053	218.140	298.689	301.697	108.203	117.585	137.233	135.992	193.622	128.137	133.509	114.553	181.447	201.094	120.116	117.490	42.495
75.000	311.414	302.318	282.742	282.527	225.708	291.097	286.084	304.275	239.220	218.236	298.522	301.697	107.964	117.752	137.281	135.705	193.550	127.898	133.270	114.744	181.184	201.118	119.925	117.466	51.203
76.000	311.796	302.127	282.670	282.718	225.493	291.646	286.490	304.443	239.555	218.355	298.665	301.840	108.107	117.585	137.018	135.824	193.503	127.898	133.222	114.696	180.897	200.999	119.996	117.466	40.646
77.000	312.488	302.366	282.216	283.386	225.851	291.575	286.681	304.848	239.650	218.427	298.808	301.339	108.083	117.704	137.018	135.824	193.550	127.827	132.912	114.577	180.683	200.927	119.925	117.370	28.554
78.000	312.010	302.461	283.004	282.670	225.899	291.599	286.872	304.490	239.650	218.331	299.023	301.649	108.227	117.728	136.970	135.777	193.431	127.445	132.864	114.649	180.492	200.784	119.925	117.179	36.179
79.000	311.605	302.246	283.076	283.028	225.445	291.814	286.967	304.562	240.080	218.665	298.570	301.793	108.179	117.466	136.755	135.801	193.479	127.731	132.721	114.553	180.229	200.856	119.829	117.442	50.121
80.000	312.225	302.294	283.362	282.742	225.875	291.933	287.421	304.657	239.746	218.498	298.999	301.769	108.251	117.537	136.803	135.705	193.407	127.421	132.339	114.482	180.014	200.784	119.853	117.394	46.105
81.000	311.199	302.700	283.482	282.861	226.066	291.933	286.919	304.395	240.724	218.546	298.785	301.769	108.203	117.704	136.732	135.824	193.431	127.302	132.387	114.673	179.799	200.808	119.877	117.442	31.216
82.000	312.130	302.079	283.291	282.885	225.756	292.267	287.397	304.729	240.295	218.594	298.761	301.840	108.083	117.418	136.350	135.872	193.359	127.230	132.196	114.386	179.775	200.641	119.853	117.251	31.080
83.000	311.652	301.960	283.124	283.195	225.612	292.148	287.421	305.111	240.175	218.450	299.358	301.745	107.845	117.299	136.445	135.824	193.312	127.254	132.100	114.434	179.704	200.689	119.781	117.275	45.970
84.000	311.605	302.557	283.959	283.362	225.732	292.028	287.325	304.204	241.154	218.546	298.928	302.007	107.940	117.585	136.302	135.657	193.383	127.182	132.005	114.434	179.561	200.641	119.590	117.203	50.166
85.000	312.536	301.888	283.076	283.052	225.875	292.554	288.471	305.063	240.772	218.952	299.167	301.888	107.869	117.442	136.254	135.753	193.383	127.015	131.957	114.482	179.441	200.593	119.567	117.346	37.352
86.000	311.461	302.795	283.267	283.386	225.708	292.339	287.564	304.753	241.011	218.689	299.286	301.817	108.107	117.346	136.302	135.896	193.383	126.967	131.766	114.410	179.179	200.498	119.638	117.227	28.283
87.000	311.915	302.485	283.744	283.124	226.162	292.291	287.731	304.848	240.915	219.023	299.334	301.912	107.892	117.394	136.135	135.610	193.336	126.896	131.623	114.267	179.226	200.450	119.662	117.275	39.427
88.000	311.843	302.389	283.744	283.195	225.971	292.386	288.042	304.848	241.106	218.594	299.286	301.578	108.155	117.370	136.183	135.824	193.336	126.872	131.527	114.410	179.035	200.354	119.471	117.322	51.113
89.000	311.915	302.557	283.506	282.742	225.421	292.554	288.424	304.562	241.106	218.689	298.904	302.413	107.845	117.394	136.135	135.753	193.383	126.729	131.432	114.386	178.821	200.402	119.399	117.155	43.262
