-----------------------------------------------------
BloodHound 307 VOC Analyser V2017.1
RoboScientific Ltd 
Espace North
Wisbech Road
Littleport
Cambridgeshire, UK
CB6 1RA 
-----------------------------------------------------
Date = 24/02/2021
Time = 11:50:40
Data is protected by RoboScientific Limited
-----------------------------------------------------
Name of the experiment = "289N"
-----------------------------------------------------
Repeat No. = 2/5
-----------------------------------------------------
Experimental Time (in sec) and Flow Profile :
-----------------------------------------------------
Baseline = 2.00
Absorb = 4.00
Pause = 1.00
Desorb = 5.00
Flush = 18.00
Wait = 5.00
Higher Flow (V) = 4.00
Medium Flow (V) = 3.00
Low Flow (V) = 1.00
-----------------------------------------------------
Total Profile Time = 35 in sec
-----------------------------------------------------
Acquired data point per second = 4
--------------------------------------------------
Total data point stored  = 120
-----------------------------------------------------
Acquired sensor responses from 24 sensors
-----------------------------------------------------

Data Points	 Sen-1	 Sen-2	 Sen-3	 Sen-4	 Sen-5	 Sen-6	 Sen-7	 Sen-8	 Sen-9	 Sen-10	 Sen-11	 Sen-12	 Sen-13	 Sen-14	 Sen-15	 Sen-16	 Sen-17	 Sen-18	 Sen-19	 Sen-20	 Sen-21	 Sen-22	 Sen-23	 Sen-24	Humidity (%r.h.)
0.000	312.321	302.175	285.177	283.697	226.591	294.272	290.954	305.278	245.045	219.501	299.787	302.748	107.272	117.155	134.607	135.466	192.906	125.463	128.567	113.694	174.356	199.686	118.874	116.511	51.023
1.000	312.560	302.915	285.296	283.482	226.663	294.201	291.002	305.278	244.878	219.525	299.835	302.413	107.630	116.964	134.392	135.514	192.977	125.320	128.662	113.718	174.380	199.877	118.922	116.702	39.563
2.000	312.178	302.795	285.344	283.004	226.233	293.771	291.336	305.517	244.974	219.191	299.214	302.509	107.845	117.227	134.535	135.490	192.930	125.272	128.424	113.789	174.332	199.710	118.779	116.678	28.148
3.000	312.416	302.437	285.201	283.697	226.424	294.201	291.050	305.183	244.998	219.525	299.477	302.485	107.439	117.179	134.655	135.371	192.858	125.320	128.543	113.646	174.261	199.781	118.803	116.773	37.577
4.000	311.843	302.175	285.368	283.720	226.114	294.105	291.336	305.135	244.974	219.763	300.026	302.915	107.511	116.941	134.368	135.251	192.906	125.272	128.400	113.479	174.261	199.614	118.970	116.773	50.572
5.000	312.369	302.366	284.962	283.315	226.400	294.511	291.455	305.230	245.308	219.859	300.026	302.533	107.343	117.132	134.511	135.419	192.739	125.320	128.400	113.765	174.165	199.758	118.850	116.559	45.428
6.000	312.512	302.795	285.702	283.458	226.854	293.795	290.882	305.445	245.165	219.405	300.098	302.342	107.582	117.108	134.535	135.323	192.858	125.368	128.495	113.694	174.261	199.686	118.803	116.750	30.855
7.000	311.843	303.010	285.177	283.267	226.663	293.843	291.145	305.302	244.592	219.620	300.217	302.389	107.558	117.179	134.511	135.395	192.954	125.225	128.400	113.694	174.261	199.638	118.803	116.726	31.080
8.000	312.345	302.222	284.890	283.243	226.185	294.320	291.360	305.302	245.260	219.668	299.501	302.461	107.558	117.108	134.464	135.562	192.954	125.248	128.400	113.646	174.285	199.734	118.803	116.702	45.744
9.000	311.509	302.485	285.248	283.553	226.257	293.509	290.811	305.660	244.950	219.907	300.074	302.294	107.797	117.179	134.464	135.395	192.858	125.177	128.400	113.622	174.213	199.638	118.874	116.630	50.527
10.000	311.294	301.912	284.914	283.911	226.973	294.105	290.930	305.111	245.236	219.334	299.549	302.533	108.346	117.132	134.153	135.419	192.786	125.416	128.400	113.718	174.094	199.686	118.850	116.654	37.848
11.000	301.267	301.482	285.248	282.885	226.305	293.485	290.500	305.063	243.303	219.095	299.238	301.864	117.872	117.991	134.511	135.395	192.691	125.487	128.639	113.980	175.359	200.139	119.304	117.132	28.193
12.000	285.081	298.092	284.819	283.267	226.520	292.482	289.569	304.562	241.130	218.212	298.952	299.501	132.792	121.238	134.631	135.251	192.214	126.585	129.498	114.291	178.080	200.951	120.498	119.614	38.480
13.000	269.205	293.532	284.580	283.410	227.069	290.572	288.805	304.347	237.573	217.161	296.063	296.421	149.647	125.798	134.893	135.347	191.903	128.185	130.739	114.744	181.733	202.121	122.169	122.551	50.301
14.000	254.666	289.832	284.246	283.267	226.973	288.996	286.585	303.607	234.350	215.681	292.291	293.294	165.618	130.047	135.347	135.586	191.760	130.620	133.222	115.604	185.601	203.195	126.585	125.821	43.849
15.000	238.647	284.484	283.697	283.362	227.666	284.938	281.906	301.435	229.934	214.822	287.349	290.357	181.351	134.583	135.586	135.514	191.664	134.273	137.233	117.179	189.205	204.150	131.432	128.949	31.080
16.000	226.066	280.187	284.174	282.885	227.379	281.070	277.060	299.071	228.048	214.535	282.145	286.943	192.786	139.382	136.159	135.896	191.450	137.519	141.960	119.949	191.641	204.628	136.111	132.124	33.607
17.000	219.214	274.386	282.431	282.598	227.689	277.657	271.402	296.445	228.358	214.296	276.869	282.455	200.521	144.825	136.541	136.159	191.330	141.411	148.215	122.551	190.184	204.508	141.602	136.135	45.293
18.000	227.260	269.372	282.336	281.882	227.785	274.076	266.173	294.631	232.034	215.371	271.879	278.731	193.097	150.220	137.424	137.137	191.378	145.231	153.753	124.938	187.128	203.530	147.093	140.384	46.782
19.000	235.019	264.216	281.524	280.784	227.880	270.280	259.799	291.837	236.165	217.639	265.839	274.911	185.099	155.257	138.069	137.973	191.569	149.146	159.531	127.493	182.974	202.002	152.775	144.538	37.171
20.000	241.894	258.797	280.951	280.044	227.713	266.293	254.070	288.710	240.128	218.904	260.468	270.614	178.367	160.557	138.737	139.023	191.760	152.775	164.998	129.999	178.749	199.829	158.624	148.955	32.750
21.000	248.221	253.544	279.805	278.612	227.570	262.569	248.985	286.609	244.305	220.886	253.759	266.173	171.611	165.929	140.074	140.169	192.094	156.833	170.680	132.339	174.356	197.585	164.902	153.395	40.149
22.000	254.261	248.555	278.062	277.991	226.281	258.438	243.470	283.720	248.507	223.249	247.695	261.399	166.144	171.348	141.339	141.172	192.739	160.987	176.003	135.347	170.656	195.723	170.656	157.287	45.338
23.000	258.629	243.613	276.893	276.248	225.087	253.640	238.074	280.832	252.876	226.138	242.205	257.913	161.250	175.932	142.223	142.079	193.598	165.833	181.829	138.212	166.693	193.192	176.887	161.703	41.367
24.000	262.019	238.814	275.866	275.436	224.658	249.104	232.846	278.039	256.027	228.310	236.427	253.258	156.738	180.993	144.037	143.631	194.553	169.820	186.603	141.029	162.897	190.399	183.189	166.406	35.367
25.000	266.269	234.016	273.383	274.052	223.416	245.045	227.904	275.341	259.155	230.602	230.483	249.032	153.992	185.529	145.660	144.395	195.556	173.998	191.378	143.822	160.008	188.537	188.346	170.226	38.029
26.000	265.338	234.207	273.526	274.649	222.843	243.876	226.663	276.535	260.826	231.796	229.790	250.107	154.565	185.171	146.663	144.180	196.367	175.502	193.359	142.819	159.555	187.630	189.516	169.629	43.714
27.000	264.431	235.974	273.192	275.293	223.010	244.377	226.878	277.704	259.680	231.843	229.957	250.465	155.663	184.097	146.711	143.679	196.511	175.263	193.097	141.554	159.579	186.675	189.158	168.746	42.766
28.000	263.500	236.809	273.264	275.126	223.010	244.807	227.021	278.301	259.966	233.180	230.339	251.181	156.881	183.428	146.830	143.345	196.654	175.025	193.001	141.124	159.626	186.269	189.134	168.268	37.713
29.000	263.356	236.809	272.882	275.078	222.652	244.711	227.069	278.803	259.680	232.989	230.220	251.969	156.976	183.309	146.782	143.154	196.797	175.048	193.121	140.718	159.197	185.601	189.277	167.982	36.043
30.000	267.821	233.753	272.118	274.625	222.103	242.491	224.705	276.296	262.640	234.923	226.448	248.722	152.058	186.030	147.355	143.631	197.084	176.553	194.959	142.509	156.570	184.120	191.975	170.226	41.232
31.000	266.412	230.196	270.877	273.264	221.458	238.623	221.315	272.595	265.935	236.547	221.458	246.358	153.467	189.325	148.549	145.111	197.895	180.707	198.731	146.735	153.562	182.258	197.370	172.781	43.127
32.000	242.610	240.128	270.089	272.357	220.456	234.637	220.026	269.253	268.274	237.072	219.931	254.475	175.908	179.059	150.316	146.424	198.994	184.837	200.044	149.886	151.175	181.208	199.901	164.711	40.104
33.000	241.990	254.141	267.725	271.426	219.023	231.151	221.936	267.845	269.420	238.003	221.411	264.311	178.701	166.239	152.106	147.904	200.283	188.465	197.967	151.414	149.528	181.256	197.776	155.043	35.412
34.000	262.616	265.266	265.815	269.826	218.092	228.095	223.822	268.227	270.518	236.785	226.878	273.455	157.979	154.398	153.491	148.812	201.190	191.426	195.508	150.889	148.931	181.805	192.404	146.400	37.397
35.000	274.792	274.410	264.646	269.038	217.209	226.520	225.708	269.922	270.471	236.475	233.228	279.352	144.299	145.469	155.425	149.576	202.121	193.168	193.956	148.907	149.385	182.855	185.195	139.596	45.428
36.000	284.914	280.712	262.736	269.062	216.421	225.994	227.045	273.479	269.420	234.851	241.823	284.270	134.774	139.047	156.857	149.981	202.837	193.885	192.763	145.804	150.244	184.264	176.744	134.917	44.977
37.000	291.121	285.320	262.043	268.704	215.991	226.018	227.093	276.654	266.866	232.846	250.011	287.970	128.137	134.177	158.337	150.220	203.458	193.383	192.500	142.557	151.724	185.720	168.388	131.432	35.096
38.000	296.326	289.760	261.065	269.038	215.920	228.000	227.116	280.092	265.219	231.390	258.033	290.310	123.530	130.906	159.006	149.790	203.697	191.664	193.001	138.761	154.493	187.606	161.345	128.806	31.396
39.000	300.241	291.766	260.086	269.611	215.586	229.886	225.660	283.864	261.566	229.910	265.219	292.840	119.996	127.946	159.698	149.289	203.744	189.134	194.147	135.251	157.979	189.205	153.753	126.681	42.270
40.000	301.745	293.914	260.157	270.232	216.039	233.204	223.703	286.323	258.271	228.262	271.521	294.153	117.060	125.869	159.722	148.453	203.601	185.505	196.248	132.506	161.465	191.211	147.833	124.986	49.805
41.000	304.586	295.418	260.110	271.306	216.206	237.621	221.506	289.235	253.926	226.066	275.914	295.347	115.986	124.198	159.483	147.355	203.315	181.542	198.277	129.737	165.165	192.858	142.366	123.935	40.916
42.000	305.875	296.994	260.945	272.046	216.994	241.703	219.549	291.384	249.892	224.276	280.020	296.636	114.052	123.339	158.862	146.400	202.551	177.746	200.020	127.397	169.176	194.386	138.307	123.028	29.501
43.000	306.711	297.495	261.279	273.335	217.710	245.977	220.862	293.771	246.144	222.772	283.697	297.734	112.739	122.264	158.265	145.445	201.858	173.210	198.922	125.344	173.330	196.272	135.132	122.073	35.728
44.000	307.475	298.785	263.189	274.529	218.379	250.632	224.490	294.989	242.300	221.721	285.774	297.567	112.237	121.405	156.929	144.299	200.975	168.531	195.102	123.983	176.911	197.895	132.530	121.333	48.632
45.000	308.620	298.904	264.001	275.603	219.381	255.001	229.552	296.803	239.005	219.907	288.256	298.212	111.497	120.784	155.663	143.106	199.972	163.804	189.850	122.431	180.420	199.352	130.453	120.975	46.692
46.000	308.716	299.095	265.600	276.773	220.241	259.513	234.637	297.424	235.639	218.427	290.214	299.262	111.139	120.450	154.374	142.390	199.065	160.128	185.314	121.357	183.667	200.736	128.877	120.665	33.156
47.000	308.764	299.692	267.152	276.869	221.148	263.213	239.913	298.689	232.584	216.923	291.527	299.190	110.901	120.092	152.679	141.339	198.325	156.117	179.489	120.474	185.959	202.073	127.564	120.140	30.313
48.000	309.289	300.098	268.585	277.824	221.793	266.436	244.735	299.405	230.005	216.517	292.339	299.620	109.755	119.734	151.318	140.718	197.704	152.488	174.428	119.614	188.346	203.124	126.323	119.758	43.398
49.000	310.029	300.480	269.563	278.898	222.461	270.113	250.035	300.098	229.170	215.204	293.222	300.121	109.946	119.328	149.743	139.978	196.940	149.194	169.367	118.827	189.731	203.983	125.630	119.256	50.752
50.000	309.719	300.241	271.068	279.065	222.772	272.786	254.666	301.029	228.382	214.750	294.105	299.740	109.516	119.328	148.525	139.501	196.463	146.090	164.473	118.277	190.972	204.604	124.652	119.399	40.285
51.000	310.268	300.551	272.524	280.163	223.368	275.627	259.489	301.076	227.666	214.559	294.654	300.241	109.659	119.352	147.451	138.785	195.986	143.464	159.817	117.728	191.378	204.866	124.270	119.304	28.599
52.000	310.315	301.148	273.646	279.972	223.750	278.015	263.237	301.673	227.809	214.153	294.869	300.217	109.325	119.137	146.233	138.474	195.580	141.220	156.427	117.394	191.450	204.699	123.386	118.898	36.675
53.000	309.862	301.244	274.744	280.521	224.108	279.757	266.197	302.222	228.501	214.702	295.538	300.360	109.373	118.922	145.254	138.188	195.269	139.358	152.870	116.917	191.139	204.556	123.076	118.850	50.030
54.000	310.769	300.885	275.508	281.047	224.299	281.763	269.349	302.342	228.931	214.822	295.968	300.527	109.277	118.827	144.180	137.830	195.007	137.687	150.172	116.773	190.518	204.413	122.694	118.659	45.518
55.000	310.960	301.100	276.272	281.572	224.371	283.052	271.927	302.724	229.814	215.371	296.206	300.694	108.824	118.779	143.297	137.639	194.935	136.660	147.857	116.391	189.731	204.317	122.479	118.683	31.531
56.000	310.984	301.291	276.821	281.452	224.371	283.792	273.789	302.915	230.793	215.251	296.731	300.718	109.206	118.349	142.533	137.376	194.649	135.442	145.684	116.129	188.967	204.007	122.240	118.564	30.810
57.000	311.127	301.387	277.680	281.214	224.562	284.938	275.436	303.177	231.414	215.609	296.684	301.196	108.728	118.492	141.984	137.114	194.553	134.320	143.846	115.914	188.274	203.864	122.073	118.588	45.293
58.000	311.605	301.291	277.800	281.834	224.681	286.084	277.107	303.392	231.796	215.800	296.612	300.671	108.656	118.421	141.435	136.994	194.434	133.509	142.390	115.866	187.630	203.434	121.787	118.373	50.256
59.000	310.674	301.458	278.731	281.596	224.705	286.705	278.397	303.535	232.631	215.824	297.304	300.814	108.680	118.373	140.909	136.899	194.338	132.840	141.244	115.818	186.961	203.315	121.500	118.254	38.209
60.000	311.223	301.363	279.089	281.596	224.920	287.397	279.232	303.679	232.989	216.159	297.113	301.076	109.110	118.301	140.480	136.803	194.481	132.243	140.193	115.508	186.365	202.909	121.453	118.397	28.238
61.000	310.817	301.411	279.399	282.025	224.920	287.660	280.044	303.655	234.183	216.397	297.758	301.124	108.370	118.421	140.265	136.636	194.243	131.790	139.214	115.341	185.720	202.766	121.214	118.230	38.119
62.000	310.745	301.339	279.901	281.930	224.968	288.018	280.903	303.655	234.541	216.755	297.376	300.814	108.513	118.254	139.787	136.493	194.171	131.336	138.427	115.198	185.147	202.622	121.095	118.134	50.572
63.000	311.390	301.411	279.853	281.787	224.944	288.567	282.097	304.156	235.186	216.827	297.997	301.673	108.633	118.206	139.405	136.564	194.171	130.644	137.639	115.246	184.622	202.455	121.071	118.110	44.616
64.000	311.151	301.840	280.641	282.049	225.016	288.495	282.288	303.846	235.687	216.994	297.997	301.626	108.370	118.134	139.214	136.397	194.100	130.477	137.161	115.317	184.144	202.336	120.808	117.943	30.043
65.000	311.700	301.721	280.879	282.169	225.326	289.426	283.291	303.893	236.188	217.281	297.663	300.981	108.370	118.015	138.809	136.302	194.076	130.119	136.302	115.126	183.595	202.145	120.736	118.063	32.344
66.000	311.056	301.745	281.023	281.978	224.729	289.617	283.506	303.679	236.236	217.352	298.426	301.458	108.465	118.015	138.594	136.397	193.932	129.784	136.087	115.007	183.356	202.073	120.808	117.991	46.917
67.000	311.414	301.769	280.951	282.264	225.302	289.904	284.007	304.156	236.928	217.710	298.116	301.554	108.346	117.991	138.427	136.183	193.956	129.570	135.586	115.055	182.855	202.002	120.689	117.824	49.669
68.000	311.891	301.554	281.166	282.837	225.469	290.429	284.842	304.132	237.191	217.233	298.259	301.578	108.465	117.991	138.236	136.254	193.932	129.283	135.084	114.887	182.449	201.787	120.545	117.895	35.953
69.000	311.939	302.079	281.261	282.718	225.684	290.286	284.795	304.156	237.573	217.663	298.665	301.244	108.179	117.967	137.925	136.278	193.837	128.949	134.678	114.864	182.020	201.763	120.713	117.895	28.689
70.000	311.581	301.912	281.524	282.670	225.445	290.310	285.153	304.323	237.334	217.567	298.450	301.506	108.513	117.919	137.758	136.015	193.718	128.806	134.583	114.887	181.709	201.524	120.498	117.848	39.743
71.000	311.342	301.912	282.216	282.264	225.708	290.763	285.415	304.204	238.647	217.615	298.570	301.649	108.203	117.991	137.758	135.944	193.670	128.591	134.129	114.864	181.447	201.524	120.378	117.681	51.113
72.000	311.342	301.936	282.431	282.765	225.326	290.691	285.702	304.252	238.385	217.782	298.474	301.435	108.036	117.967	137.615	136.087	193.646	128.495	133.867	114.720	181.303	201.381	120.426	117.728	42.947
73.000	311.891	301.530	281.930	282.742	225.803	290.763	286.179	304.777	238.671	217.758	298.259	301.363	108.274	117.967	137.376	135.992	193.670	128.233	133.747	114.768	180.945	201.381	120.378	117.728	29.321
74.000	311.414	301.769	282.360	282.360	225.517	291.050	286.275	304.466	238.934	218.092	298.570	301.769	108.179	117.657	137.209	136.111	193.503	128.328	133.413	114.649	180.563	201.309	120.092	117.824	33.652
75.000	311.199	301.912	282.479	282.264	225.421	291.288	286.323	304.275	239.459	217.949	298.188	301.482	107.773	117.728	137.257	136.087	193.622	128.137	133.246	114.744	180.420	201.238	120.163	117.466	47.910
76.000	311.676	301.912	282.885	283.028	225.254	291.527	286.896	304.371	239.196	218.045	298.617	301.458	108.322	117.681	136.899	136.063	193.646	128.161	132.983	114.577	180.038	201.142	120.140	117.537	48.541
77.000	311.509	301.960	282.909	282.646	225.493	291.694	286.633	304.299	239.602	218.140	298.689	302.055	107.701	117.919	137.161	136.135	193.622	127.898	132.864	114.625	179.990	200.999	120.163	117.418	34.464
78.000	311.843	301.864	282.885	282.718	225.612	291.551	287.039	304.156	239.817	218.045	298.474	301.339	107.964	117.752	137.114	135.944	193.694	127.684	132.578	114.649	179.847	201.118	120.187	117.394	29.276
79.000	311.557	302.175	282.980	283.434	225.684	291.933	287.158	304.395	240.080	218.427	298.808	301.984	108.107	117.704	136.875	136.063	193.646	127.684	132.411	114.673	179.465	200.975	120.259	117.442	41.999
80.000	312.154	301.387	282.598	282.479	225.421	292.410	287.612	305.063	240.032	218.331	298.665	301.578	108.251	117.824	136.684	135.753	193.574	127.707	132.411	114.768	179.274	200.880	120.020	117.322	51.203
81.000	311.247	301.864	283.028	282.765	225.684	291.551	287.254	304.538	240.629	218.403	298.808	301.769	107.869	117.848	136.708	135.896	193.527	127.540	132.148	114.577	179.250	200.856	120.020	117.322	41.413
82.000	311.724	302.533	283.697	282.789	225.851	291.718	287.397	304.443	240.629	218.140	298.450	301.435	108.251	117.657	136.732	135.968	193.574	127.373	132.005	114.529	179.059	200.856	119.805	117.490	28.779
83.000	311.533	302.389	283.577	282.885	225.756	291.670	287.540	304.395	241.130	218.450	298.928	301.817	108.012	117.537	136.517	135.968	193.479	127.397	131.885	114.482	178.797	200.808	119.781	117.513	34.870
84.000	312.321	301.673	282.765	282.551	225.660	291.885	288.042	304.992	240.605	218.761	298.761	301.697	107.845	117.561	136.421	135.824	193.598	127.278	131.766	114.338	178.677	200.689	119.901	117.418	48.993
85.000	312.273	301.936	283.243	283.243	225.636	292.100	288.042	305.087	240.581	218.856	298.976	301.817	107.988	117.561	136.421	135.777	193.479	127.278	131.694	114.338	178.582	200.689	119.805	117.442	47.549
86.000	311.223	302.031	283.434	282.885	225.589	292.243	288.042	304.562	241.369	218.331	298.665	302.366	108.203	117.513	136.206	135.848	193.455	127.254	131.575	114.338	178.367	200.617	119.949	117.442	33.381
87.000	311.843	301.960	283.434	282.837	225.684	292.721	288.304	304.801	240.891	218.832	298.880	301.721	107.916	117.609	136.183	135.729	193.336	127.063	131.623	114.458	178.319	200.569	119.614	117.275	29.546
88.000	311.414	302.246	283.553	282.980	225.708	292.076	287.970	304.562	241.441	218.427	299.095	301.960	107.773	117.513	136.230	135.920	193.383	127.015	131.408	114.267	178.271	200.569	119.567	117.299	42.676
89.000	312.464	301.697	283.482	283.076	225.612	292.243	288.758	305.159	241.321	218.713	299.047	301.721	107.869	117.466	136.135	135.848	193.407	126.872	131.193	114.362	178.128	200.593	119.662	117.227	51.294
