-----------------------------------------------------
BloodHound 307 VOC Analyser V2017.1
RoboScientific Ltd 
Espace North
Wisbech Road
Littleport
Cambridgeshire, UK
CB6 1RA 
-----------------------------------------------------
Date = 24/02/2021
Time = 11:50:01
Data is protected by RoboScientific Limited
-----------------------------------------------------
Name of the experiment = "289N"
-----------------------------------------------------
Repeat No. = 1/5
-----------------------------------------------------
Experimental Time (in sec) and Flow Profile :
-----------------------------------------------------
Baseline = 2.00
Absorb = 4.00
Pause = 1.00
Desorb = 5.00
Flush = 18.00
Wait = 5.00
Higher Flow (V) = 4.00
Medium Flow (V) = 3.00
Low Flow (V) = 1.00
-----------------------------------------------------
Total Profile Time = 35 in sec
-----------------------------------------------------
Acquired data point per second = 4
--------------------------------------------------
Total data point stored  = 120
-----------------------------------------------------
Acquired sensor responses from 24 sensors
-----------------------------------------------------

Data Points	 Sen-1	 Sen-2	 Sen-3	 Sen-4	 Sen-5	 Sen-6	 Sen-7	 Sen-8	 Sen-9	 Sen-10	 Sen-11	 Sen-12	 Sen-13	 Sen-14	 Sen-15	 Sen-16	 Sen-17	 Sen-18	 Sen-19	 Sen-20	 Sen-21	 Sen-22	 Sen-23	 Sen-24	Humidity (%r.h.)
0.000	312.536	302.652	285.702	283.362	226.567	295.036	292.315	305.612	246.979	219.978	300.575	302.915	107.367	116.893	133.891	135.180	192.500	124.604	127.493	113.383	172.446	199.328	118.397	116.200	34.870
1.000	312.058	302.843	285.630	283.338	226.758	294.440	292.219	305.278	246.573	220.193	300.575	303.344	107.511	116.821	133.962	135.251	192.619	124.652	127.278	113.336	172.446	199.256	118.468	116.415	28.869
2.000	312.703	302.915	285.702	283.434	226.830	294.917	292.458	305.756	247.290	220.289	300.289	302.676	107.630	116.726	133.580	135.251	192.595	124.556	127.325	113.216	172.327	199.256	118.421	116.344	41.142
3.000	313.109	303.177	285.797	283.147	226.687	294.822	292.649	305.636	246.478	220.217	300.527	303.082	107.009	116.821	133.986	135.132	192.643	124.604	127.230	113.240	172.494	199.185	118.325	116.320	51.519
4.000	312.488	302.962	286.251	283.744	226.902	294.463	291.814	305.159	247.003	219.931	300.814	303.058	107.296	116.750	133.938	135.204	192.595	124.461	127.206	113.336	172.231	199.232	118.397	116.296	42.089
5.000	312.894	302.915	286.012	283.434	226.567	294.869	292.601	305.684	246.764	220.050	299.978	302.843	107.463	116.750	133.747	135.466	192.739	124.580	127.397	113.479	172.327	199.208	118.421	116.344	28.960
6.000	312.416	303.082	286.203	283.888	226.902	294.607	292.052	305.350	247.099	220.050	300.312	303.058	107.367	116.702	133.747	135.347	192.500	124.580	127.302	113.312	172.351	199.352	118.373	116.296	33.607
7.000	312.536	302.748	285.606	283.577	226.639	294.965	292.410	305.803	246.884	220.169	300.527	302.771	107.606	116.750	133.819	135.251	192.500	124.437	127.445	113.383	172.231	199.376	118.301	116.177	48.000
8.000	311.987	302.509	285.726	283.315	226.591	294.559	292.124	305.541	247.122	220.145	300.742	303.058	107.176	116.726	133.891	135.371	192.667	124.556	127.373	113.407	172.351	199.208	118.421	116.177	48.993
9.000	311.987	302.819	285.654	283.792	226.400	294.845	291.933	305.326	247.146	219.811	300.718	303.297	107.534	116.678	133.819	135.132	192.643	124.556	127.302	113.288	172.470	199.256	118.373	116.224	34.915
10.000	310.960	303.082	285.654	283.506	226.758	294.607	291.933	305.445	246.358	219.859	300.312	303.392	107.988	116.869	133.676	135.060	192.524	124.604	127.278	113.264	172.494	199.256	118.349	116.248	28.734
11.000	301.817	302.318	286.156	283.601	226.926	294.082	291.933	305.660	245.523	219.429	299.763	302.270	116.845	117.322	133.915	135.299	192.285	124.819	127.421	113.336	173.592	199.519	118.779	116.678	41.638
12.000	286.227	298.212	285.893	283.744	227.761	293.580	291.479	305.374	243.374	218.665	299.334	300.408	133.891	120.331	133.938	135.132	191.808	125.845	128.185	113.932	175.836	200.665	119.423	118.731	51.203
13.000	269.969	294.631	285.630	283.482	227.307	292.028	290.166	305.016	239.722	217.424	297.710	297.257	149.790	124.890	133.915	134.965	191.426	127.373	129.164	114.123	179.179	201.524	120.951	121.644	41.277
14.000	254.738	290.166	284.699	283.267	228.334	290.047	288.233	304.538	236.403	216.541	293.771	294.416	166.311	129.952	134.344	135.228	191.402	129.546	131.479	114.911	183.118	202.646	125.201	124.819	29.321
15.000	239.507	285.129	285.153	283.458	227.857	285.654	284.628	302.485	231.485	215.371	288.447	291.384	180.444	134.249	134.631	135.013	190.924	133.604	134.989	116.248	187.463	203.888	129.761	127.827	35.186
16.000	227.427	280.641	284.651	283.410	228.191	281.858	279.638	300.026	228.859	214.822	283.147	287.612	192.070	139.071	135.419	135.419	190.996	136.923	139.787	119.018	190.877	204.413	135.299	131.265	47.323
17.000	219.572	275.747	284.079	283.267	228.955	278.158	274.076	297.185	227.928	214.296	278.564	284.102	201.118	144.085	135.657	136.015	190.877	141.124	145.684	121.644	190.805	204.795	140.432	135.251	46.015
18.000	225.660	270.280	283.338	282.097	228.621	274.219	267.558	294.893	231.629	214.535	273.049	279.996	193.359	149.647	136.278	136.493	190.757	144.777	151.963	124.938	187.391	204.580	145.780	139.047	34.690
19.000	232.942	264.813	282.765	281.596	228.382	270.351	261.232	291.885	236.093	216.421	267.582	276.224	186.532	154.231	136.946	137.209	190.805	148.334	157.573	127.015	183.309	203.148	150.889	142.867	33.020
20.000	241.512	259.799	282.193	280.402	228.071	266.937	256.147	289.713	239.316	217.114	261.447	271.545	177.531	159.674	137.615	137.997	190.781	152.058	163.279	129.641	178.773	201.572	156.738	147.236	42.495
21.000	247.027	255.311	280.712	279.328	228.310	263.452	251.038	287.110	244.067	219.596	256.170	267.415	173.019	165.069	138.737	139.429	190.996	155.997	168.674	132.363	175.216	199.758	162.897	151.867	46.285
22.000	252.589	249.343	279.686	277.800	227.570	259.537	245.499	284.461	248.197	221.267	250.369	263.356	166.812	169.772	139.811	140.432	191.426	160.295	174.428	134.846	171.658	197.704	168.746	156.021	40.059
23.000	257.818	244.831	278.755	276.535	227.069	255.096	240.509	281.572	251.205	223.607	244.377	259.202	161.417	175.407	141.291	141.769	192.070	164.282	179.274	137.352	167.409	195.102	174.714	160.247	34.284
24.000	262.974	239.698	276.606	275.794	226.185	250.345	235.090	279.352	254.595	225.756	238.862	255.120	156.881	179.370	142.891	142.843	192.882	168.221	183.715	140.050	163.947	192.786	180.444	164.735	38.796
25.000	266.364	235.066	275.985	274.696	225.254	246.908	230.650	276.535	258.486	228.239	232.488	250.608	153.801	184.359	144.276	143.631	193.837	172.351	188.632	142.604	161.465	191.044	186.197	168.770	44.075
26.000	265.529	236.523	274.290	274.935	224.443	245.571	229.910	278.134	258.247	228.979	232.369	251.229	154.780	183.691	145.183	143.321	194.816	173.616	189.778	141.268	161.321	189.946	187.152	168.221	42.405
27.000	264.478	237.931	275.198	275.962	224.634	246.836	230.793	278.803	257.627	230.029	232.440	252.160	155.496	182.640	145.135	142.891	195.031	173.353	189.444	139.955	161.512	189.062	186.961	167.385	36.946
28.000	263.118	238.289	274.458	276.439	223.894	246.597	230.363	279.781	257.961	230.793	232.440	253.306	157.167	181.876	145.087	142.652	195.102	173.043	189.158	139.382	161.608	188.632	186.937	166.741	36.269
29.000	262.807	238.409	273.980	275.914	223.750	246.669	230.626	280.498	257.985	231.390	232.249	253.234	157.907	181.566	145.350	142.270	195.484	173.043	189.396	138.809	161.321	187.940	187.224	166.502	42.180
30.000	267.534	235.615	274.099	275.890	223.774	244.735	228.334	278.253	260.897	232.774	228.955	250.823	152.416	184.717	145.708	142.891	195.747	174.714	191.259	140.814	158.313	186.054	189.993	168.722	43.714
31.000	266.794	230.578	272.046	274.243	222.652	240.438	224.538	274.076	264.574	235.042	223.488	246.645	151.963	189.086	147.164	144.347	196.630	178.868	195.627	144.872	155.472	184.383	195.914	172.494	39.608
32.000	245.833	239.722	270.614	273.121	221.506	236.594	220.551	271.282	266.675	235.926	220.599	254.022	173.616	180.492	148.525	145.684	197.609	182.807	199.041	148.119	152.918	183.046	198.659	165.475	36.224
33.000	239.053	253.330	269.492	271.760	220.551	232.584	219.978	269.372	268.227	236.188	222.199	263.714	181.160	166.932	150.220	146.735	198.659	186.388	200.092	149.934	151.294	182.593	197.131	155.496	38.886
34.000	259.608	264.049	267.916	270.853	219.191	229.957	221.005	269.922	269.134	235.974	226.544	272.261	159.077	154.899	151.963	147.857	199.996	189.468	198.707	149.647	150.411	182.879	191.879	146.854	45.067
35.000	274.123	273.670	266.364	270.208	218.450	228.000	222.533	271.020	268.561	235.353	233.634	279.304	144.777	145.684	153.443	148.549	200.856	191.282	197.299	147.713	150.530	184.049	184.646	140.026	43.894
36.000	283.864	280.521	264.789	269.754	217.328	227.498	223.488	273.741	267.486	233.133	242.228	284.819	135.633	139.167	154.708	149.026	201.811	192.428	196.463	145.016	151.748	185.147	176.815	135.108	34.329
37.000	290.715	285.535	263.882	269.778	216.970	227.761	223.464	277.418	265.935	232.106	250.226	287.851	128.949	134.225	156.236	149.122	202.288	191.951	196.248	141.650	153.109	186.699	168.483	131.479	32.885
38.000	296.445	288.901	262.401	269.683	216.612	229.313	222.963	280.951	264.216	230.268	258.247	290.715	124.150	130.381	157.096	148.931	202.694	190.184	196.630	138.212	155.950	188.465	160.486	128.591	43.533
39.000	299.262	291.790	261.900	270.065	216.803	231.533	221.888	283.983	260.897	228.692	264.956	292.649	119.853	127.707	157.597	148.310	202.575	187.678	197.704	134.726	158.982	190.351	153.443	126.657	49.083
40.000	302.819	293.485	261.566	270.542	217.161	234.470	220.289	287.612	256.791	227.069	271.258	293.938	117.227	125.726	157.860	147.570	202.551	184.574	198.898	131.814	162.133	192.046	147.546	124.914	39.472
41.000	303.893	295.227	261.709	271.855	217.257	238.456	219.859	289.569	252.924	225.374	276.320	295.848	115.580	124.365	157.573	146.735	202.169	180.683	200.235	129.140	166.693	193.694	142.342	123.768	29.411
42.000	305.756	296.779	262.378	272.691	217.734	242.658	220.432	292.386	249.438	224.037	280.832	296.755	113.909	122.957	157.048	145.589	201.644	176.027	199.113	127.063	170.083	195.269	138.427	122.670	37.217
43.000	306.734	297.639	263.691	273.861	218.188	247.290	223.488	294.082	245.595	222.461	283.124	297.042	112.978	122.145	156.451	144.586	200.784	171.873	195.651	125.129	174.285	196.797	134.965	122.097	49.444
44.000	307.475	299.023	264.741	275.317	219.310	251.611	228.334	295.872	241.846	221.005	286.585	297.782	112.166	121.262	155.114	143.536	200.044	167.218	191.044	123.219	177.818	198.492	132.912	121.644	45.203
45.000	307.713	298.808	265.911	275.985	220.336	256.123	233.777	296.779	237.621	219.000	288.256	298.594	111.688	120.808	154.088	142.748	199.304	163.040	186.150	122.169	181.232	199.949	130.477	120.832	31.757
46.000	309.050	299.501	266.699	276.248	220.933	260.277	238.480	298.498	234.040	217.997	290.166	298.689	111.283	120.378	152.775	141.697	198.468	158.958	181.303	121.071	184.001	200.999	128.734	120.354	31.306
47.000	309.026	299.907	268.537	277.848	221.673	264.144	243.565	298.713	232.536	217.066	291.169	299.549	110.972	120.068	151.462	141.100	197.872	155.019	175.645	120.140	186.699	202.455	127.516	120.116	44.932
48.000	309.719	300.193	269.922	278.683	222.103	267.415	248.579	299.978	230.125	216.111	292.363	299.525	110.638	119.543	149.981	140.384	196.988	151.581	170.704	119.018	188.728	203.482	126.275	119.972	50.121
49.000	310.029	300.312	271.258	279.208	222.843	270.566	253.616	300.551	228.788	215.084	293.294	299.954	110.065	119.781	148.979	139.644	196.511	148.358	166.120	118.659	190.232	204.270	125.272	119.256	38.480
50.000	310.435	300.360	271.951	279.352	223.297	273.908	258.152	301.148	227.618	214.344	294.272	300.002	110.089	119.232	147.570	139.238	196.105	145.278	161.345	118.110	191.091	204.675	124.676	119.304	28.418
51.000	310.172	300.885	273.431	279.925	223.535	276.057	262.091	301.697	227.570	214.249	295.013	299.954	109.826	119.065	146.329	138.474	195.508	142.939	157.048	117.585	191.545	204.890	124.055	119.089	37.893
52.000	310.387	300.623	273.980	280.593	223.965	278.946	265.959	301.578	227.976	214.416	295.299	299.954	109.635	118.898	145.063	138.236	195.293	140.647	153.610	117.036	191.378	204.628	123.530	119.113	50.166
53.000	310.148	301.148	275.985	280.784	224.347	280.545	268.871	302.175	228.167	214.702	295.586	300.026	109.206	118.850	144.299	138.092	195.078	138.713	150.459	116.845	190.924	204.699	123.004	118.874	45.383
54.000	310.793	300.766	275.962	280.378	224.347	281.978	271.640	302.557	228.859	214.941	295.896	300.432	109.038	118.755	143.512	137.806	194.935	137.233	148.095	116.678	190.375	204.484	122.694	118.659	30.990
55.000	310.793	301.172	277.012	281.118	224.753	283.840	274.004	302.795	230.148	215.323	296.469	300.551	109.229	118.659	142.724	137.591	194.744	135.896	145.636	116.320	189.683	204.079	122.408	118.588	31.261
56.000	311.103	301.100	277.489	281.238	224.729	284.437	275.699	303.273	230.841	215.347	296.517	300.862	108.776	118.659	142.055	137.233	194.696	134.774	143.822	116.057	188.871	203.840	122.169	118.612	45.609
57.000	311.366	301.076	278.062	281.739	224.705	285.415	277.537	303.655	232.225	215.681	297.233	300.909	108.967	118.516	141.363	137.185	194.505	134.058	142.557	116.009	188.155	203.601	121.858	118.516	50.256
58.000	311.414	301.435	278.755	282.145	224.992	286.156	278.755	303.321	232.393	215.968	297.257	300.981	108.847	118.445	140.933	136.970	194.434	133.198	141.100	115.914	187.439	203.410	121.620	118.349	37.577
59.000	310.650	301.506	279.590	282.169	225.087	286.919	279.566	303.344	233.180	216.517	297.448	301.005	108.633	118.468	140.504	136.708	194.314	132.339	140.026	115.771	186.818	203.124	121.620	118.445	28.509
60.000	311.867	301.435	279.543	281.954	225.087	287.660	280.712	303.774	233.252	216.159	297.113	301.100	108.513	118.182	139.835	136.946	194.410	131.885	138.880	115.413	186.030	202.957	121.405	118.301	39.112
61.000	311.294	301.076	279.996	282.193	225.254	288.304	281.572	303.655	234.088	216.350	297.543	301.053	108.967	118.254	139.549	136.564	194.076	131.360	138.045	115.365	185.314	202.718	121.262	118.373	50.978
62.000	311.438	301.435	280.521	282.407	224.920	288.447	282.025	304.013	234.780	216.588	297.424	301.124	108.251	118.301	139.382	136.517	194.052	130.835	137.209	115.269	184.741	202.527	121.071	118.039	43.623
63.000	311.652	301.817	280.832	282.503	225.350	289.187	283.386	303.870	235.138	217.042	297.472	301.005	108.322	118.110	138.928	136.445	194.004	130.357	136.660	115.341	184.383	202.312	121.047	117.967	29.952
64.000	310.841	301.554	281.070	282.240	225.350	289.402	283.529	303.917	236.117	217.066	297.782	301.244	108.656	118.254	138.856	136.493	193.980	130.190	136.015	115.007	183.715	202.288	120.784	118.086	32.434
65.000	311.199	301.769	281.070	281.954	225.230	289.569	284.055	304.061	236.284	217.305	298.021	301.172	108.274	118.230	138.498	136.278	193.956	129.784	135.657	115.150	183.428	202.121	120.689	117.943	47.052
66.000	311.605	301.745	280.903	282.216	225.183	289.999	284.628	304.347	236.666	217.472	297.949	301.029	108.251	118.039	138.212	136.254	193.932	129.546	135.060	115.007	182.903	202.049	120.545	117.967	49.489
67.000	310.960	301.793	281.333	282.956	225.445	290.047	284.890	304.132	237.167	217.257	297.758	301.482	108.394	117.919	138.188	136.278	193.885	129.235	134.607	114.911	182.378	201.882	120.522	117.776	36.269
68.000	311.867	301.840	282.097	282.765	225.326	290.596	285.559	304.347	237.549	217.519	298.045	301.458	108.752	117.919	137.782	136.015	193.837	129.164	134.368	114.887	182.091	201.763	120.522	117.967	28.599
69.000	311.008	302.127	281.763	282.503	225.469	290.190	285.893	304.443	238.289	217.734	298.140	301.482	108.322	117.895	137.854	136.159	193.861	128.782	133.938	114.840	181.709	201.667	120.522	117.681	39.608
70.000	311.915	301.411	281.596	282.407	225.398	290.357	286.227	304.586	238.003	217.686	298.212	301.888	108.370	118.015	137.663	136.063	193.837	128.639	133.652	114.887	181.447	201.524	120.593	117.967	50.843
71.000	311.676	301.888	282.575	282.384	225.326	290.811	286.132	304.729	238.361	217.854	298.092	301.291	108.346	117.919	137.496	135.992	193.670	128.400	133.365	114.935	181.208	201.381	120.354	117.872	43.578
72.000	311.533	302.055	282.813	282.765	225.445	290.835	286.156	304.180	239.029	217.854	298.331	301.530	108.513	117.752	137.305	136.111	193.718	128.495	133.222	114.720	180.850	201.476	120.474	117.872	29.636
73.000	311.270	301.864	282.765	282.789	225.756	290.930	286.323	304.275	239.220	217.639	298.665	301.769	108.107	117.991	137.137	135.968	193.718	128.257	132.983	114.792	180.659	201.357	120.235	117.704	32.750
74.000	311.461	301.745	282.336	282.837	225.756	291.646	286.824	304.347	239.101	218.212	298.570	301.482	108.203	117.824	137.018	135.920	193.765	127.994	132.721	114.744	180.325	201.166	120.211	117.657	47.594
75.000	311.127	302.771	282.837	282.431	225.517	290.906	286.752	304.347	239.769	217.854	298.546	301.554	108.370	117.752	136.970	136.039	193.741	128.042	132.482	114.649	180.229	201.118	120.211	117.657	49.083
76.000	311.533	301.984	282.575	282.575	225.875	291.694	287.063	304.634	239.889	218.068	298.856	301.602	108.298	118.015	136.875	135.944	193.670	127.803	132.363	114.553	179.871	201.071	120.283	117.752	35.096
77.000	311.867	302.127	282.551	282.765	225.326	291.646	287.278	304.538	240.223	218.116	298.665	301.482	108.203	117.776	136.803	135.920	193.527	127.731	132.148	114.434	179.775	201.118	120.378	117.681	28.779
78.000	311.748	302.127	282.885	282.742	226.066	291.599	287.469	304.586	239.722	218.522	298.761	301.482	108.298	117.728	136.684	135.944	193.694	127.540	132.005	114.649	179.441	201.071	120.211	117.561	40.736
79.000	312.058	301.840	283.147	282.312	225.541	291.766	288.209	304.920	240.223	218.450	298.474	301.196	107.964	117.824	136.493	135.824	193.527	127.445	131.742	114.601	179.298	200.951	120.116	117.609	51.249
80.000	311.772	302.366	283.362	282.980	225.732	292.219	287.827	304.395	240.533	218.450	298.880	301.673	108.203	117.752	136.469	136.039	193.574	127.516	131.766	114.482	179.155	200.951	119.972	117.490	42.676
81.000	312.058	301.864	283.219	282.837	225.541	292.028	288.209	304.848	240.414	218.761	298.928	301.458	108.131	117.704	136.421	135.872	193.646	127.493	131.694	114.362	179.059	200.903	119.996	117.537	29.140
82.000	311.796	302.222	283.124	282.551	225.445	292.005	288.018	304.538	240.605	218.236	298.952	302.031	108.060	117.752	136.230	135.920	193.503	127.325	131.551	114.458	178.940	200.760	119.925	117.537	33.878
83.000	311.819	302.437	283.434	282.837	225.732	292.100	288.185	304.562	240.963	218.403	298.785	301.697	107.940	117.561	136.230	135.801	193.598	127.206	131.360	114.482	178.653	200.736	119.805	117.442	47.910
84.000	311.772	301.984	283.315	282.384	225.636	292.219	288.376	305.207	241.130	218.737	298.594	301.984	107.964	117.585	136.159	135.848	193.550	127.087	131.336	114.505	178.439	200.736	119.805	117.251	48.857
85.000	311.867	302.294	283.673	282.861	225.660	292.363	288.543	304.681	240.939	218.618	299.119	301.745	108.036	117.609	135.920	135.753	193.598	127.134	131.169	114.434	178.343	200.689	119.829	117.394	35.051
86.000	311.987	301.888	283.362	283.386	226.066	292.386	288.710	304.705	240.820	218.570	299.286	301.864	108.036	117.609	135.992	135.872	193.431	127.039	131.050	114.505	178.080	200.712	119.758	117.394	28.824
87.000	311.796	302.294	283.744	283.004	225.899	293.055	288.447	304.968	241.560	218.450	299.143	301.888	108.179	117.537	135.944	135.753	193.383	126.824	130.930	114.410	178.200	200.665	119.781	117.203	40.961
88.000	312.034	302.127	283.744	282.622	225.899	292.530	288.662	304.992	241.488	218.618	298.665	301.984	107.988	117.490	135.920	135.848	193.479	126.896	130.835	114.434	178.009	200.808	119.710	117.442	51.294
89.000	311.915	302.437	284.413	283.052	225.971	292.530	288.614	304.657	241.727	218.427	298.761	301.673	108.227	117.418	135.968	135.848	193.503	126.872	130.692	114.458	177.866	200.712	119.519	117.346	42.315
