-----------------------------------------------------
BloodHound 307 VOC Analyser V2017.1
RoboScientific Ltd 
Espace North
Wisbech Road
Littleport
Cambridgeshire, UK
CB6 1RA 
-----------------------------------------------------
Date = 24/02/2021
Time = 12:06:24
Data is protected by RoboScientific Limited
-----------------------------------------------------
Name of the experiment = "3455N"
-----------------------------------------------------
Repeat No. = 4/5
-----------------------------------------------------
Experimental Time (in sec) and Flow Profile :
-----------------------------------------------------
Baseline = 2.00
Absorb = 4.00
Pause = 1.00
Desorb = 5.00
Flush = 18.00
Wait = 5.00
Higher Flow (V) = 4.00
Medium Flow (V) = 3.00
Low Flow (V) = 1.00
-----------------------------------------------------
Total Profile Time = 35 in sec
-----------------------------------------------------
Acquired data point per second = 4
--------------------------------------------------
Total data point stored  = 120
-----------------------------------------------------
Acquired sensor responses from 24 sensors
-----------------------------------------------------

Data Points	 Sen-1	 Sen-2	 Sen-3	 Sen-4	 Sen-5	 Sen-6	 Sen-7	 Sen-8	 Sen-9	 Sen-10	 Sen-11	 Sen-12	 Sen-13	 Sen-14	 Sen-15	 Sen-16	 Sen-17	 Sen-18	 Sen-19	 Sen-20	 Sen-21	 Sen-22	 Sen-23	 Sen-24	Humidity (%r.h.)
0.000	312.560	303.082	284.890	283.792	226.758	293.914	290.500	305.469	243.852	220.671	300.289	302.771	107.224	116.630	134.917	134.726	192.046	125.177	129.283	113.646	175.526	198.898	118.612	116.081	35.773
1.000	312.631	302.891	285.057	283.864	227.021	294.392	290.238	305.493	243.995	220.456	300.098	302.986	107.630	116.582	134.846	134.583	192.118	125.057	129.211	113.503	175.502	198.826	118.540	116.248	28.689
2.000	312.082	302.962	284.508	284.580	227.069	294.702	290.190	305.135	244.472	220.647	299.859	303.058	107.391	116.773	134.869	134.440	192.094	125.010	129.164	113.550	175.430	198.898	118.588	116.296	41.774
3.000	312.201	302.795	284.413	284.508	227.188	294.034	290.142	305.541	244.234	220.408	300.050	302.891	107.391	116.678	135.013	134.559	191.975	125.057	129.283	113.574	175.478	198.898	118.683	116.081	51.474
4.000	312.345	303.583	285.296	284.437	227.475	294.010	290.381	305.159	244.425	220.145	300.265	303.153	107.367	116.630	134.917	134.535	191.903	125.010	129.020	113.550	175.335	198.731	118.588	115.986	40.555
5.000	311.915	303.106	285.033	284.484	227.475	294.392	290.405	305.302	244.210	220.623	299.954	302.915	107.511	116.559	134.798	134.702	192.070	124.938	129.140	113.527	175.407	198.826	118.588	116.057	28.238
6.000	312.464	303.344	284.628	284.413	227.236	294.917	290.310	305.326	244.186	220.265	299.835	303.082	107.367	116.702	134.726	134.583	191.951	124.986	129.092	113.550	175.311	198.970	118.588	116.129	36.946
7.000	311.987	302.867	284.699	284.055	226.735	294.607	290.453	305.111	244.616	220.122	300.312	303.153	107.367	116.678	134.822	134.535	191.903	125.057	129.188	113.622	175.407	198.707	118.468	116.200	50.166
8.000	312.297	303.130	284.842	284.246	227.355	294.177	290.477	305.684	244.449	220.336	300.360	302.986	107.391	116.559	134.726	134.559	192.070	124.986	129.164	113.670	175.287	198.946	118.612	116.081	45.473
9.000	312.751	303.249	284.986	284.365	227.451	294.463	290.190	305.159	244.449	220.408	300.169	303.368	107.272	116.678	134.989	134.583	191.999	124.867	128.997	113.789	175.239	198.922	118.588	115.986	30.358
10.000	311.724	303.297	284.866	284.270	227.212	294.082	290.572	305.565	244.043	220.504	299.954	302.939	108.442	116.630	134.631	134.559	191.951	124.986	129.068	113.574	175.359	198.874	118.755	116.177	31.802
11.000	301.960	302.318	284.795	284.270	227.451	293.867	290.166	305.039	242.849	219.549	299.286	302.652	116.917	117.370	134.702	134.511	191.688	125.511	129.379	113.622	176.457	199.232	118.994	116.415	47.007
12.000	288.662	299.381	284.795	283.840	227.880	292.959	289.474	305.063	240.891	219.000	298.737	300.360	132.052	120.498	135.013	134.511	191.473	126.562	130.453	114.171	178.988	200.259	119.925	118.755	49.308
13.000	272.046	294.678	284.246	283.959	228.262	291.264	287.707	304.729	236.928	217.949	296.827	297.830	146.997	124.914	135.299	134.678	191.211	127.851	131.647	114.649	182.020	201.309	121.882	121.954	35.051
14.000	257.245	290.214	284.079	283.983	228.095	288.853	285.726	303.583	233.610	216.397	293.079	294.869	161.584	128.495	135.442	134.559	190.900	130.047	133.986	115.413	185.386	202.527	125.153	124.461	29.862
15.000	242.873	286.370	283.482	283.553	228.239	285.010	281.142	302.103	230.292	215.371	288.400	291.193	175.908	133.294	135.992	134.846	190.686	133.795	138.188	116.941	188.919	203.601	130.262	127.684	42.495
16.000	231.652	281.238	283.076	283.291	228.573	282.169	275.627	299.692	228.167	214.774	283.171	288.328	188.465	137.901	136.278	135.037	190.709	137.352	143.727	119.232	191.139	204.246	135.156	131.050	49.354
17.000	220.981	276.558	282.479	283.243	228.692	278.373	270.113	297.495	227.857	214.249	278.349	284.246	199.161	142.986	137.185	135.633	190.757	141.220	149.934	121.667	191.020	204.628	140.193	134.822	39.924
18.000	221.435	271.736	282.312	283.147	229.122	274.267	262.903	294.511	231.103	214.941	273.335	280.593	197.800	148.000	137.591	136.230	190.733	144.681	156.308	124.556	188.179	204.317	145.875	138.737	30.945
19.000	228.979	266.436	280.784	281.285	228.048	270.638	256.863	292.506	234.541	216.421	267.916	276.487	190.399	152.989	138.379	137.233	190.781	148.143	162.228	126.753	183.977	202.837	150.960	142.461	38.525
20.000	236.188	261.375	279.996	279.996	228.262	267.057	251.062	289.641	239.053	217.997	262.067	272.572	184.502	158.122	139.238	138.021	190.805	151.963	168.507	129.379	180.181	200.951	156.475	146.472	46.962
21.000	242.205	256.767	279.423	278.993	227.737	262.855	244.950	287.349	242.754	219.787	256.767	268.943	177.937	163.398	140.098	139.262	191.282	156.069	174.476	131.790	175.789	199.113	162.849	150.793	41.909
22.000	247.242	251.539	278.707	277.848	227.451	258.892	239.149	284.890	246.812	222.151	250.751	264.550	172.375	168.531	141.339	140.551	191.712	160.462	180.563	134.798	171.706	196.917	168.412	154.684	33.923
23.000	252.255	246.263	276.821	276.606	226.544	254.881	233.347	281.763	250.703	224.323	244.616	260.229	167.385	172.828	142.223	141.578	192.309	164.138	185.648	137.257	168.340	194.720	173.974	158.528	37.352
24.000	257.173	241.441	275.198	275.818	225.875	249.963	228.095	278.946	254.165	226.806	238.982	256.672	163.422	177.842	143.918	142.891	193.479	168.603	191.211	139.692	164.234	191.879	179.895	162.730	44.345
25.000	259.919	237.573	274.076	274.410	224.729	246.120	223.822	276.726	257.364	228.597	234.040	252.589	160.295	182.187	145.374	143.703	194.481	173.353	195.962	142.795	161.655	190.184	185.362	166.812	42.902
26.000	259.346	238.218	273.574	275.317	224.586	244.902	222.795	277.633	258.009	230.125	233.133	253.783	160.128	181.805	146.185	143.416	195.126	174.237	197.275	141.387	161.226	188.919	186.150	165.905	37.126
27.000	258.462	239.101	273.168	275.317	223.631	245.308	223.130	279.352	257.913	230.602	233.777	254.810	162.061	180.539	146.209	143.201	195.222	174.022	196.917	140.337	161.655	188.442	185.815	164.902	35.998
28.000	256.863	240.342	273.359	275.818	223.798	245.762	223.321	279.399	258.271	231.390	233.419	255.550	162.873	179.895	146.353	142.867	195.556	174.022	196.773	139.716	161.202	187.869	185.744	164.377	42.315
29.000	257.531	240.199	273.168	275.436	223.655	245.523	223.010	280.139	258.725	232.225	233.562	255.311	162.658	179.584	146.329	142.628	195.651	173.998	196.893	139.525	160.987	187.319	185.983	164.162	44.210
30.000	260.659	236.379	272.285	275.389	223.082	243.589	220.838	277.489	260.802	233.610	229.313	252.685	158.480	183.189	146.806	143.416	195.962	175.908	198.803	141.769	158.027	185.577	189.611	166.979	39.247
31.000	252.995	238.886	271.569	273.503	222.222	239.029	219.811	273.932	263.667	234.541	224.586	254.046	165.762	181.232	148.024	144.825	196.821	180.205	200.474	145.684	155.186	184.311	194.696	165.404	35.863
32.000	232.774	251.038	270.351	272.309	221.482	235.592	221.506	271.378	265.887	235.663	224.371	263.595	187.057	168.579	149.456	146.114	197.824	183.786	198.015	148.239	153.013	183.309	194.959	156.021	39.879
33.000	257.269	263.452	269.014	271.449	220.313	232.369	224.419	270.089	267.486	235.830	228.215	271.999	161.990	155.854	151.247	147.451	198.850	187.582	195.484	148.716	151.915	183.404	190.471	147.021	45.609
34.000	272.977	273.479	266.866	269.969	219.310	229.957	226.687	272.190	267.868	233.992	234.589	279.089	145.732	146.114	152.512	148.406	199.925	189.731	193.073	147.260	152.011	184.407	183.285	139.525	41.819
35.000	284.174	280.259	265.075	269.802	218.546	228.525	227.928	274.434	266.651	233.085	243.016	284.986	136.350	139.382	154.088	148.955	200.903	191.044	191.951	144.705	152.560	185.529	175.956	134.607	32.614
36.000	291.837	285.797	263.977	269.277	217.686	229.050	228.334	277.585	265.147	231.533	251.539	288.638	128.448	134.010	155.234	149.289	201.453	191.044	191.617	141.530	154.302	186.961	167.528	130.644	35.096
37.000	295.705	289.259	263.046	269.349	217.567	229.623	227.546	281.023	262.425	229.910	258.940	290.930	123.004	130.262	156.451	149.170	201.954	189.564	191.832	138.069	156.570	188.871	159.602	127.779	46.601
38.000	299.835	292.100	262.664	270.327	217.543	232.273	226.496	283.673	259.751	227.904	266.054	293.270	120.116	127.325	157.072	148.668	202.073	187.296	193.192	134.893	159.244	190.423	152.560	125.917	47.143
39.000	303.058	294.511	262.449	270.447	217.257	235.114	224.371	287.325	256.409	226.782	272.357	295.036	116.988	125.272	157.382	147.928	201.954	184.431	195.198	131.981	162.969	192.046	147.093	124.437	34.419
40.000	304.657	296.159	262.736	271.115	217.925	239.077	221.793	289.808	252.327	225.135	276.678	295.991	114.840	123.673	157.454	147.140	201.644	180.492	197.800	129.474	166.597	193.980	141.841	123.028	30.810
41.000	306.806	297.400	262.688	272.261	218.116	242.682	219.907	292.291	248.483	223.392	280.975	296.803	114.052	122.312	156.857	145.995	200.903	176.529	200.020	126.991	170.656	195.365	138.092	122.264	43.308
42.000	307.522	298.259	263.213	274.052	219.023	246.908	219.931	293.795	244.258	221.793	284.222	298.140	112.906	121.500	156.117	145.207	200.283	172.017	199.781	124.962	174.094	197.227	134.511	121.285	50.211
43.000	307.928	298.952	264.717	274.911	219.572	251.205	223.273	295.657	240.915	219.978	287.397	298.426	111.736	120.784	155.210	144.013	199.590	167.695	196.272	123.386	177.698	198.564	132.005	120.784	39.157
44.000	309.074	299.047	264.837	275.341	220.265	256.027	228.453	297.018	237.764	218.761	288.686	299.167	111.259	120.259	154.016	142.843	198.755	163.398	191.282	122.193	180.969	200.259	130.166	120.378	28.869
45.000	308.692	300.098	266.842	276.224	221.578	259.656	233.371	298.045	234.064	217.472	290.835	299.692	110.972	119.781	153.204	142.008	197.800	159.077	185.863	121.047	184.049	201.596	128.352	119.805	38.074
46.000	309.361	300.193	267.606	277.131	221.888	263.810	238.862	299.167	231.820	216.063	291.885	299.811	110.184	119.447	151.915	141.196	197.251	155.210	180.563	120.116	186.555	202.598	126.705	119.328	50.346
47.000	310.292	300.145	268.632	277.752	222.676	267.343	243.923	299.740	230.125	215.442	292.530	300.074	109.874	119.209	150.602	140.599	196.558	152.178	175.263	119.185	188.704	203.721	125.989	119.209	43.804
48.000	310.650	301.076	270.399	278.707	223.440	270.089	248.961	300.647	229.050	215.084	293.723	300.217	109.874	118.803	149.599	139.787	196.057	149.074	170.513	118.492	189.993	204.246	125.225	119.232	29.862
49.000	310.077	301.220	271.402	279.161	223.846	273.073	253.640	300.838	228.477	214.464	294.845	300.790	109.253	118.659	148.573	139.191	195.341	146.209	165.905	118.086	190.853	204.628	124.437	118.373	32.975
50.000	310.244	300.981	272.357	279.853	224.252	275.914	257.722	301.554	227.689	214.464	295.036	300.432	109.277	118.636	147.164	138.474	195.174	143.297	161.274	117.728	191.187	204.484	123.840	118.540	47.549
51.000	310.841	301.220	273.550	280.545	224.514	277.943	261.876	302.127	227.976	214.965	295.371	300.957	109.444	118.349	146.090	138.045	194.696	141.100	157.502	117.203	191.187	204.389	123.219	118.445	48.722
52.000	311.103	300.957	274.314	280.903	224.849	280.402	265.457	302.318	228.812	214.917	295.920	300.551	109.182	118.182	145.254	137.448	194.505	139.358	154.207	116.773	190.972	204.246	122.742	118.182	34.464
53.000	311.294	301.530	275.627	281.405	225.111	281.691	268.465	302.748	229.074	215.466	296.517	301.124	108.776	118.277	144.371	137.305	194.386	137.663	151.056	116.606	190.304	204.007	122.408	118.086	29.321
54.000	311.056	301.291	275.890	281.596	225.111	283.553	270.948	303.106	229.719	215.586	296.708	301.029	108.465	118.182	143.416	137.090	193.956	136.206	148.740	116.415	189.587	203.649	122.193	118.230	42.541
55.000	310.793	301.387	276.726	281.834	225.469	284.365	273.216	303.177	230.865	216.063	296.708	301.411	108.895	117.967	142.724	136.684	193.885	135.084	146.687	116.057	188.823	203.386	121.811	118.063	51.068
56.000	311.772	301.482	277.275	281.452	225.708	285.248	274.696	303.416	231.342	216.302	297.233	301.411	108.656	117.991	142.223	136.660	193.694	134.082	144.658	115.842	188.465	202.885	121.500	117.824	40.194
57.000	311.270	301.817	277.800	282.049	225.421	286.108	276.320	303.416	232.512	216.564	297.686	301.267	108.752	117.728	141.626	136.421	193.503	133.509	143.416	115.675	187.773	202.718	121.357	117.919	28.463
58.000	311.127	302.103	278.230	282.169	225.803	286.776	277.394	303.297	232.655	217.066	297.543	301.554	108.370	117.943	141.315	136.278	193.527	132.387	142.127	115.604	186.985	202.503	121.214	117.752	36.991
59.000	311.796	301.817	278.803	282.694	225.947	287.683	278.731	303.583	233.037	217.376	297.519	301.506	108.752	117.776	140.695	136.206	193.431	131.885	140.814	115.317	186.436	202.193	121.047	117.657	50.436
60.000	310.984	302.055	279.328	282.622	225.684	288.113	279.208	303.512	233.968	216.875	297.949	301.888	108.489	117.872	140.456	136.159	193.407	131.265	139.835	115.341	185.887	202.002	120.927	117.466	44.706
61.000	311.151	302.151	279.734	282.288	225.923	288.042	280.498	303.822	234.493	217.352	297.758	301.506	108.370	117.728	140.050	135.920	193.407	130.883	139.095	115.246	185.338	201.787	120.784	117.394	30.268
62.000	311.151	302.270	280.235	282.765	225.994	288.925	281.261	303.607	234.899	217.830	297.901	302.175	108.179	117.704	139.787	135.848	193.240	130.381	138.379	115.126	184.884	201.715	120.593	117.394	32.208
63.000	311.247	301.936	280.283	282.479	225.660	288.901	281.739	304.180	234.780	217.567	298.045	301.793	108.298	117.490	139.358	135.896	193.288	130.190	137.687	114.959	184.526	201.572	120.593	117.370	46.962
64.000	312.010	301.721	280.235	283.076	225.994	289.999	283.052	304.037	235.568	217.854	298.259	301.936	108.298	117.633	139.286	135.753	193.288	129.784	137.066	115.055	184.049	201.357	120.450	117.251	49.218
65.000	311.605	302.915	280.856	282.670	226.281	289.928	282.885	304.132	236.212	218.307	298.068	301.793	108.060	117.633	139.071	135.777	193.407	129.570	136.612	115.078	183.547	201.262	120.545	117.322	34.961
66.000	312.273	302.366	280.593	282.956	226.185	290.286	283.697	304.347	236.236	218.236	298.450	301.912	108.107	117.633	138.809	135.729	193.097	129.116	136.206	114.983	183.237	201.047	120.331	117.203	29.185
67.000	312.034	302.389	281.118	283.195	226.496	290.620	283.720	304.466	236.379	218.331	298.045	301.912	108.274	117.322	138.546	135.586	193.001	128.901	135.824	114.887	182.974	200.951	120.307	117.227	42.541
68.000	311.557	301.864	281.047	283.076	225.994	290.500	284.461	304.299	237.310	218.236	298.570	302.222	107.869	117.513	138.427	135.514	193.168	128.710	135.371	114.792	182.545	200.760	120.140	117.132	51.023
69.000	312.178	302.222	281.094	283.004	226.520	291.264	284.962	304.299	237.263	218.546	298.235	301.960	108.251	117.442	138.164	135.610	192.906	128.543	134.989	114.673	182.234	200.808	120.163	117.179	40.194
70.000	311.628	302.366	281.381	282.956	226.329	291.002	284.866	304.657	237.525	218.594	299.071	302.198	108.131	117.346	138.021	135.562	192.858	128.424	134.678	114.696	181.996	200.641	120.211	117.227	28.238
71.000	312.225	302.580	282.097	283.410	226.687	291.026	285.129	304.729	237.883	218.379	298.379	302.031	108.251	117.370	137.997	135.490	193.001	128.209	134.392	114.625	181.781	200.641	120.020	116.964	36.810
72.000	311.533	302.294	281.715	282.527	226.185	291.121	285.654	304.347	238.313	218.665	299.119	302.175	107.964	117.322	137.830	135.275	192.954	128.018	134.058	114.768	181.542	200.402	120.116	117.012	50.572
73.000	311.366	302.533	282.097	282.980	226.066	291.121	285.535	304.634	238.242	218.713	299.071	302.318	108.179	117.370	137.615	135.490	192.882	127.875	133.915	114.529	181.279	200.426	120.044	117.084	45.022
74.000	311.485	302.175	281.834	283.219	226.209	291.408	285.821	304.586	238.719	219.023	299.405	302.509	107.964	117.132	137.639	135.419	192.954	127.898	133.747	114.529	181.065	200.235	119.925	117.036	30.313
75.000	311.700	303.010	282.479	283.291	226.639	291.527	286.036	304.586	238.814	218.689	298.785	302.246	108.012	117.370	137.567	135.347	192.858	127.612	133.509	114.553	180.778	200.402	119.925	116.988	32.253
76.000	311.939	302.413	282.145	283.434	226.663	291.885	286.394	304.562	238.862	219.310	298.999	302.246	107.916	117.275	137.472	135.347	192.834	127.516	133.342	114.625	180.492	200.283	119.734	116.917	47.459
77.000	311.748	302.580	282.503	283.362	226.830	291.551	286.323	304.610	239.459	218.665	298.689	302.270	107.845	117.322	137.328	135.347	192.810	127.397	133.007	114.505	180.396	200.116	119.781	116.917	49.354
78.000	311.533	302.652	282.384	283.673	226.424	291.814	286.728	304.252	239.196	219.381	299.334	302.533	108.179	117.322	137.233	135.299	192.786	127.445	133.079	114.434	180.181	200.139	119.638	117.012	35.006
79.000	312.010	302.557	283.147	283.195	226.520	292.196	286.919	304.848	239.722	219.262	298.976	302.485	107.892	117.251	137.233	135.371	192.786	127.182	132.721	114.291	179.919	200.116	119.614	116.917	29.050
80.000	312.297	302.748	282.933	283.386	226.591	292.339	286.896	304.896	239.435	219.047	299.358	302.055	107.821	117.251	136.994	135.204	192.810	127.134	132.602	114.362	179.943	200.068	119.734	116.821	42.270
81.000	312.058	302.724	283.028	283.983	226.472	292.124	286.991	304.538	239.841	219.405	299.262	302.366	108.012	117.108	136.875	135.180	192.763	126.943	132.411	114.410	179.656	199.996	119.781	116.893	51.294
82.000	312.225	302.604	283.386	283.482	226.448	292.864	287.564	304.825	239.865	219.167	298.928	302.175	107.606	117.108	136.779	135.299	192.810	127.087	132.196	114.338	179.632	199.996	119.710	116.869	40.600
83.000	312.010	302.676	283.028	283.243	226.735	292.745	287.301	304.562	240.128	219.286	299.047	302.748	107.869	117.084	136.684	135.299	192.786	126.729	132.124	114.267	179.465	199.877	119.614	116.964	28.418
84.000	312.082	302.557	282.933	283.577	226.663	292.458	287.421	305.254	240.533	219.143	298.904	302.413	107.964	117.084	136.684	135.347	192.643	126.848	132.052	114.362	179.202	199.901	119.686	116.869	36.314
85.000	311.891	302.915	283.291	283.959	226.544	292.673	287.588	304.610	240.581	219.358	299.023	302.079	107.821	117.155	136.684	135.251	192.739	126.657	131.909	114.410	179.155	199.686	119.519	116.845	50.211
86.000	311.891	302.795	283.004	283.529	226.735	292.315	287.851	304.753	240.963	219.620	299.453	302.294	107.582	117.084	136.493	135.299	192.739	126.776	131.981	114.219	179.011	199.925	119.447	116.797	45.699
87.000	312.082	302.724	283.052	283.697	226.735	292.864	287.970	304.920	240.796	219.931	299.143	302.294	108.036	117.108	136.708	135.180	192.786	126.633	131.861	114.410	179.035	199.877	119.543	116.702	30.810
88.000	311.963	302.795	283.219	283.697	226.544	292.267	287.898	305.063	240.796	219.572	299.525	302.700	107.654	117.132	136.469	135.132	192.643	126.657	131.742	114.338	178.725	199.758	119.495	116.797	31.712
89.000	312.178	303.010	283.625	283.673	226.902	292.745	287.922	304.968	240.820	219.334	299.167	302.175	108.036	117.299	136.445	135.108	192.739	126.562	131.694	114.219	178.582	199.734	119.352	116.845	46.917
