-----------------------------------------------------
BloodHound 307 VOC Analyser V2017.1
RoboScientific Ltd 
Espace North
Wisbech Road
Littleport
Cambridgeshire, UK
CB6 1RA 
-----------------------------------------------------
Date = 24/03/2022
Time = 12:29:38
Data is protected by RoboScientific Limited
-----------------------------------------------------
Name of the experiment = "50a_Day 35"
-----------------------------------------------------
Repeat No. = 4/4
-----------------------------------------------------
Experimental Time (in sec) and Flow Profile :
-----------------------------------------------------
Baseline = 2.00
Absorb = 4.00
Pause = 1.00
Desorb = 5.00
Flush = 20.00
Wait = 5.00
Higher Flow (V) = 4.00
Medium Flow (V) = 3.00
Low Flow (V) = 1.00
-----------------------------------------------------
Total Profile Time = 37 in sec
-----------------------------------------------------
Acquired data point per second = 4
--------------------------------------------------
Total data point stored  = 128
-----------------------------------------------------
Acquired sensor responses from 24 sensors
-----------------------------------------------------

Data Points	 Sen-1	 Sen-2	 Sen-3	 Sen-4	 Sen-5	 Sen-6	 Sen-7	 Sen-8	 Sen-9	 Sen-10	 Sen-11	 Sen-12	 Sen-13	 Sen-14	 Sen-15	 Sen-16	 Sen-17	 Sen-18	 Sen-19	 Sen-20	 Sen-21	 Sen-22	 Sen-23	 Sen-24	Humidity (%r.h.)
0.000	307.594	306.687	276.153	293.389	312.703	314.255	315.329	278.062	284.723	303.989	223.774	230.674	112.094	112.619	143.201	125.105	106.412	104.717	103.953	139.740	134.082	115.031	194.649	188.585	40.646
1.000	307.546	306.830	276.272	293.938	312.488	314.446	315.210	278.206	284.938	303.703	223.679	230.602	112.166	112.858	143.464	125.201	106.365	104.813	104.049	139.787	134.106	115.198	194.744	189.134	39.247
2.000	307.116	306.567	276.272	293.580	312.536	314.064	315.114	278.158	284.962	304.132	223.631	230.077	112.094	112.906	143.321	125.177	106.460	104.741	104.001	139.835	134.082	115.174	194.840	189.253	39.021
3.000	307.331	306.543	275.818	293.532	312.631	314.326	315.186	278.182	285.201	304.013	223.344	229.838	112.166	112.810	143.464	125.177	106.436	104.693	104.001	139.811	134.058	115.174	194.792	189.564	40.510
4.000	307.594	306.615	275.938	294.010	312.440	314.302	315.233	278.086	284.986	303.655	223.870	229.814	112.094	113.049	143.559	125.153	106.341	104.693	103.953	139.740	134.034	115.126	194.768	189.492	42.225
5.000	307.546	306.472	275.866	293.604	312.583	313.920	315.042	278.325	285.439	303.989	223.655	230.292	112.094	112.787	143.512	125.105	106.412	104.765	104.001	139.787	134.129	115.102	194.720	188.991	41.638
6.000	307.666	306.543	275.794	293.628	312.822	314.589	315.162	278.277	285.224	303.893	223.559	230.936	112.142	112.739	143.512	125.201	106.532	104.765	104.001	139.764	134.034	115.031	194.744	188.465	39.788
7.000	307.475	306.639	275.985	293.604	312.846	314.446	315.281	278.397	284.866	303.846	223.774	231.247	112.046	112.810	143.440	125.272	106.412	104.717	103.906	139.692	134.106	115.007	194.768	188.298	39.247
8.000	307.475	306.758	275.938	293.652	312.369	314.350	315.400	278.421	285.033	303.798	223.273	230.650	111.927	112.834	143.536	124.986	106.388	104.717	103.953	139.740	134.177	115.055	194.672	188.895	39.157
9.000	307.403	306.734	275.962	293.604	312.369	313.920	315.353	278.349	284.890	303.559	223.822	230.698	111.903	112.882	143.464	125.129	106.245	104.670	103.882	139.740	134.153	115.031	194.649	188.871	41.683
10.000	306.281	305.326	275.389	293.652	312.440	314.278	315.210	278.253	285.320	303.344	223.368	250.775	113.312	113.550	143.583	125.105	106.436	104.908	104.073	139.764	133.867	115.580	194.959	169.367	42.180
11.000	284.651	288.209	273.431	292.219	311.915	314.111	315.090	277.657	285.917	295.204	221.267	287.612	136.254	132.124	145.684	126.490	106.794	105.171	104.097	140.026	133.079	124.461	196.678	130.787	39.157
12.000	245.189	244.114	266.555	289.092	311.056	313.109	314.899	275.866	286.156	271.282	220.026	302.222	176.027	177.460	152.727	129.450	107.725	105.935	104.288	141.936	132.673	149.456	197.991	115.246	47.639
13.000	234.684	253.568	257.149	283.888	310.244	311.963	314.493	272.810	286.490	249.749	219.119	311.127	184.025	164.592	161.608	134.273	108.752	106.651	104.693	144.849	132.482	169.009	199.208	107.558	49.444
14.000	260.110	278.659	246.812	275.317	308.740	311.103	314.040	269.372	285.893	231.199	218.236	316.284	158.003	139.429	172.231	142.986	109.874	107.511	105.028	148.072	132.840	186.937	200.020	102.712	39.743
15.000	281.094	295.108	239.125	265.744	306.997	310.029	313.610	265.600	285.439	221.506	217.830	319.507	138.761	124.222	182.449	152.512	111.426	108.680	105.434	152.154	133.485	196.654	200.617	99.704	29.682
16.000	295.991	305.350	233.825	257.316	305.565	308.740	313.109	261.303	284.747	236.666	217.185	322.801	123.410	113.622	188.704	161.679	113.001	110.041	106.006	156.547	134.129	182.449	201.357	97.317	32.750
17.000	306.949	312.583	234.923	249.462	303.440	307.164	312.488	256.576	283.768	250.871	216.994	324.186	111.903	106.388	185.839	169.581	115.126	111.569	106.556	161.369	134.965	168.436	201.787	94.929	45.699
18.000	313.395	317.477	238.361	242.586	301.721	305.135	311.390	251.324	283.243	262.998	216.278	325.523	104.813	101.423	179.513	176.242	117.513	113.861	107.678	166.526	135.920	154.780	202.264	94.380	53.550
19.000	319.889	320.772	242.109	235.568	299.143	302.461	310.411	245.618	282.073	274.338	216.159	326.979	99.394	97.579	172.828	182.712	119.495	115.842	108.418	171.945	136.564	143.106	202.527	93.306	45.789
20.000	323.064	324.090	247.170	229.074	296.564	299.811	309.480	239.769	281.047	283.888	216.039	326.549	95.813	95.287	166.955	189.516	122.217	118.397	109.420	178.176	137.567	134.177	202.622	92.972	32.344
21.000	326.215	325.571	251.253	223.130	293.819	297.066	308.143	234.064	280.498	291.288	215.968	328.579	92.972	93.712	161.584	196.009	124.771	121.453	110.757	184.311	138.522	127.469	202.646	92.232	29.185
22.000	328.435	327.457	255.001	217.543	291.169	293.700	306.711	227.952	278.946	296.445	215.824	328.841	91.730	91.563	156.833	201.285	127.898	125.201	112.476	190.447	139.859	122.049	203.052	91.850	39.247
23.000	329.987	328.101	257.842	219.835	287.445	289.617	304.896	222.342	277.800	300.503	215.562	327.958	89.438	90.656	152.751	199.208	131.145	128.710	114.267	196.129	140.909	117.657	203.195	91.897	52.286
24.000	330.584	329.772	261.303	224.992	284.031	285.654	302.867	218.450	277.107	303.655	215.490	329.414	88.149	89.916	149.456	193.240	134.774	133.055	116.344	200.426	142.032	113.885	203.243	90.560	51.339
25.000	331.372	330.083	263.929	229.456	280.259	281.476	300.551	219.310	275.699	306.257	215.442	330.130	87.528	89.176	146.997	189.325	138.522	137.018	118.468	199.638	143.106	112.190	203.362	90.847	38.615
26.000	332.255	330.847	264.932	228.907	279.208	280.163	299.477	219.191	275.269	306.400	215.562	329.414	87.528	89.009	146.066	189.802	139.620	138.451	119.590	199.901	143.750	112.500	203.291	91.587	28.373
27.000	331.372	330.608	265.171	228.000	279.566	280.259	299.190	219.095	275.460	306.209	215.633	329.677	87.457	88.603	145.684	190.853	139.525	138.570	119.925	199.686	143.559	112.667	203.362	90.847	32.930
28.000	332.088	330.680	265.600	227.069	279.734	280.139	299.501	219.119	275.651	305.636	215.586	330.584	87.719	87.982	145.875	191.903	139.167	138.283	120.116	200.020	143.154	113.145	203.267	91.754	47.188
29.000	331.658	330.345	265.839	226.209	279.638	280.211	298.785	219.071	275.818	305.469	215.729	330.035	87.123	88.746	145.780	192.882	138.761	138.021	120.116	200.116	143.201	112.978	203.028	90.656	54.362
30.000	332.542	331.276	266.890	229.241	278.468	278.564	298.045	219.954	275.436	307.331	215.633	330.083	87.051	87.887	144.658	189.158	140.122	139.955	121.238	198.373	143.750	111.545	203.482	90.751	44.932
31.000	332.613	331.372	268.131	234.183	275.341	275.603	296.015	221.626	274.314	307.403	215.538	329.772	87.505	87.887	143.297	184.646	143.559	142.963	123.004	197.394	144.538	111.187	203.386	90.751	31.622
32.000	330.250	331.372	269.922	235.878	272.882	274.243	294.917	219.954	275.389	303.965	215.633	328.794	88.555	88.841	142.342	183.261	146.281	144.944	124.055	198.564	143.679	114.314	203.028	91.682	29.276
33.000	328.030	330.489	269.922	234.851	273.335	274.410	295.251	221.936	276.726	297.782	216.159	327.791	91.229	89.367	141.554	183.738	145.589	144.109	123.912	196.726	141.864	120.641	202.431	93.043	40.149
34.000	325.929	329.414	270.184	232.202	275.436	276.558	296.326	228.955	278.516	288.352	216.684	325.260	93.377	90.346	141.960	186.412	143.321	142.079	122.957	189.802	140.169	129.808	202.049	94.834	52.557
35.000	322.204	327.839	269.205	227.666	278.349	279.184	297.758	235.902	280.498	277.585	217.472	323.255	97.317	91.659	142.127	190.924	140.647	139.644	121.476	181.805	138.618	142.079	200.784	96.815	49.850
36.000	318.098	325.905	268.298	221.984	281.357	281.858	299.214	242.085	281.476	263.070	218.474	320.104	101.638	93.736	143.989	196.821	137.305	136.469	119.949	175.120	137.257	156.785	199.829	99.370	37.307
37.000	312.583	323.661	267.224	217.066	284.126	284.723	300.694	247.218	282.479	246.144	219.286	317.048	106.938	96.171	145.565	201.858	134.010	133.724	118.468	169.223	136.302	174.022	199.017	102.497	29.321
38.000	304.968	320.390	264.741	223.488	287.803	288.161	302.270	251.849	283.147	228.597	219.883	313.228	114.553	98.916	147.451	195.054	131.050	130.739	116.702	164.473	135.442	189.420	198.683	105.696	35.502
39.000	294.845	316.761	262.401	231.652	290.262	290.668	303.822	255.144	283.697	221.291	220.527	309.313	123.721	102.521	150.339	187.296	128.448	128.328	115.246	161.154	135.013	197.800	198.134	108.967	47.504
40.000	282.216	312.846	259.513	239.674	292.554	292.649	305.159	258.200	284.222	233.682	220.504	306.376	137.161	106.747	153.419	179.202	125.774	125.654	113.813	157.955	134.678	186.078	197.919	112.787	50.978
41.000	268.179	307.498	256.552	246.740	294.965	295.466	306.591	260.611	284.150	243.613	221.124	303.679	152.034	111.712	157.358	172.327	123.697	123.386	112.524	155.663	134.392	175.789	197.513	115.986	42.495
42.000	252.207	302.270	253.043	252.446	296.851	297.543	307.546	262.401	284.938	251.539	221.339	300.575	167.719	117.060	161.465	165.786	121.763	121.190	111.521	153.873	134.273	167.600	197.370	118.994	32.930
43.000	239.220	295.227	249.414	257.722	298.307	299.405	308.764	264.049	284.723	257.627	221.363	297.376	180.181	123.482	166.096	160.414	120.116	119.280	110.638	152.416	134.249	161.297	197.012	121.858	32.569
44.000	228.597	287.994	245.404	262.569	300.217	301.220	309.432	265.409	285.057	262.616	221.578	294.726	190.686	130.835	169.772	155.759	118.564	117.466	109.611	151.223	134.129	156.379	197.012	124.126	41.458
45.000	221.769	278.062	241.536	266.221	301.458	302.986	310.005	266.723	284.771	266.603	221.888	292.363	197.752	140.432	174.046	152.440	117.442	115.914	108.991	150.053	134.201	152.822	196.749	126.275	49.173
46.000	222.461	267.534	238.265	269.229	302.246	304.180	310.626	267.319	284.508	270.733	221.626	290.286	197.418	152.082	178.510	149.432	116.368	114.410	108.274	149.026	134.010	148.859	196.535	128.567	46.105
47.000	231.318	253.998	234.971	272.142	303.512	305.660	311.175	268.585	284.556	274.052	222.127	287.755	187.821	165.809	182.473	146.305	115.031	113.240	107.892	148.334	134.058	144.777	196.415	131.002	38.029
48.000	240.748	238.647	232.774	274.481	304.156	306.687	311.724	269.372	284.699	277.131	222.055	284.413	177.985	180.897	185.983	143.583	114.338	112.046	107.415	147.403	134.082	141.626	196.105	134.153	32.614
49.000	250.059	225.254	231.247	277.466	305.207	307.737	312.034	270.256	284.771	280.235	222.151	281.214	169.677	193.718	188.823	141.411	113.407	110.877	106.985	146.520	134.058	138.260	195.986	136.755	37.397
50.000	256.409	229.528	231.056	279.543	305.923	308.788	312.560	271.473	284.580	283.100	222.628	277.346	162.945	190.781	190.280	139.071	112.763	109.611	106.508	146.114	134.297	136.135	195.795	140.384	45.744
51.000	261.733	241.560	232.607	281.214	306.496	309.838	312.918	271.736	284.842	284.699	222.533	274.792	157.836	178.653	188.346	137.424	111.760	108.776	106.197	145.517	134.249	134.225	195.532	143.034	47.188
52.000	265.744	252.064	235.066	282.980	307.427	310.769	313.562	272.739	284.651	286.156	222.915	272.595	154.016	167.767	185.577	135.944	111.330	108.131	105.887	145.040	134.225	132.745	195.436	145.589	41.638
53.000	268.632	260.420	237.645	284.079	307.833	311.294	313.514	272.667	284.771	287.182	222.628	270.017	150.841	158.456	182.521	134.774	110.757	107.654	105.672	144.681	134.273	132.005	195.484	147.928	35.592
54.000	271.975	268.203	240.056	285.296	308.453	311.414	313.443	272.977	284.795	288.113	222.795	268.059	147.666	151.318	179.417	133.700	110.304	107.224	105.505	144.323	134.368	131.026	195.389	149.743	35.547
55.000	274.481	274.123	242.730	285.702	308.931	312.034	314.255	273.694	284.795	288.710	223.106	265.935	144.968	145.207	176.648	133.079	110.017	107.033	105.362	143.918	134.177	130.286	195.413	151.844	41.548
56.000	277.370	278.540	245.260	286.561	309.146	312.154	314.183	274.290	284.604	289.426	223.273	263.643	142.509	141.196	174.308	132.482	109.755	106.699	105.171	143.655	134.297	129.522	195.413	153.897	45.699
57.000	279.328	282.002	247.958	286.967	309.552	312.392	314.278	274.314	284.747	290.500	223.130	261.232	140.384	137.424	171.802	131.670	109.397	106.603	105.099	143.440	134.153	128.615	195.126	156.475	43.939
58.000	281.405	285.201	249.772	288.018	309.528	312.416	314.302	274.458	284.795	291.169	223.535	258.677	138.164	134.344	169.558	131.097	109.158	106.221	105.028	143.273	134.273	128.089	195.269	159.316	39.472
59.000	283.171	287.516	251.563	288.424	310.315	313.037	314.350	274.553	284.437	291.455	223.703	256.433	136.350	131.814	167.672	130.572	108.776	106.126	105.004	143.177	134.392	127.373	194.887	161.775	36.179
60.000	284.842	289.546	253.473	288.949	310.268	312.894	314.350	274.792	284.699	292.076	223.583	253.640	134.893	129.761	165.833	130.334	108.800	106.006	104.741	142.724	134.201	126.824	195.126	164.496	38.615
61.000	286.132	291.384	255.072	289.259	310.602	313.300	314.493	275.078	284.675	292.410	223.416	251.324	133.389	128.089	164.210	129.880	108.537	105.983	104.693	142.581	134.273	126.347	195.174	166.979	43.262
62.000	287.325	292.816	256.624	289.402	310.960	313.252	314.708	275.556	284.890	292.673	223.249	248.459	132.363	126.776	162.778	129.665	108.394	105.863	104.502	142.390	134.297	126.108	195.031	169.056	43.894
63.000	287.898	293.891	258.104	289.546	310.697	313.085	314.469	275.126	284.675	292.888	223.321	246.669	131.456	125.559	161.369	129.092	108.155	105.839	104.574	142.485	134.440	125.869	195.054	171.754	41.638
64.000	288.782	294.607	259.035	289.880	310.578	313.204	314.732	275.675	284.508	293.246	223.416	244.854	130.835	124.508	160.319	129.092	108.203	105.672	104.550	142.223	134.392	125.607	195.150	173.521	38.525
65.000	289.880	295.800	260.014	290.214	311.032	313.395	314.971	275.460	284.747	293.652	223.344	243.064	129.975	123.959	159.435	128.734	107.892	105.696	104.526	142.199	134.177	125.416	195.031	175.192	37.938
66.000	290.310	296.349	260.826	290.238	310.793	313.419	314.804	275.651	284.842	293.962	223.297	241.727	129.379	123.243	158.456	128.639	107.964	105.505	104.383	141.960	134.440	125.296	195.007	176.457	40.375
67.000	290.835	297.090	261.470	290.596	310.841	313.467	314.708	275.866	284.675	294.105	223.201	240.319	128.901	122.766	157.883	128.543	107.988	105.577	104.383	141.960	134.249	125.105	195.078	177.866	43.623
68.000	291.026	297.519	262.187	290.310	311.032	313.538	314.660	275.651	284.628	294.082	223.106	239.125	128.209	122.264	157.382	128.280	107.892	105.601	104.550	142.032	134.297	124.938	195.054	179.370	42.811
69.000	292.005	297.663	262.473	290.572	311.056	313.705	315.114	276.367	284.723	294.010	223.512	237.931	128.018	121.763	156.714	128.280	107.797	105.505	104.359	141.721	134.225	124.938	195.054	180.253	39.788
70.000	292.100	298.331	263.094	290.453	311.270	313.634	314.732	275.938	284.890	294.082	223.058	236.833	127.445	121.524	156.260	128.233	107.797	105.457	104.359	141.793	134.273	124.843	195.126	181.423	38.570
71.000	292.888	298.235	263.333	290.596	311.509	313.562	314.828	276.463	284.819	294.535	223.392	235.950	127.015	121.142	155.950	128.185	107.630	105.529	104.407	141.673	134.297	124.580	195.078	182.306	39.021
72.000	292.768	298.570	263.953	290.906	311.318	313.419	314.708	275.842	284.723	294.440	223.201	235.186	126.633	120.760	155.496	127.994	107.678	105.529	104.479	141.697	134.320	124.676	195.102	183.285	42.044
73.000	293.127	298.594	264.120	291.121	311.270	313.801	314.589	276.033	284.866	294.535	223.106	234.135	126.180	120.617	155.114	128.066	107.606	105.290	104.407	141.554	134.225	124.365	195.198	184.073	43.037
74.000	293.700	299.047	264.598	290.882	311.628	313.753	314.875	276.129	284.842	294.845	223.368	233.300	125.821	120.259	154.899	127.970	107.701	105.386	104.311	141.506	134.106	124.317	195.102	185.051	41.097
75.000	294.225	299.572	264.502	291.121	311.270	313.443	314.732	276.320	285.081	294.678	223.201	232.703	125.463	120.068	154.637	127.684	107.582	105.529	104.407	141.578	134.273	124.246	195.150	185.696	39.247
76.000	294.726	299.740	265.195	291.097	311.342	313.634	314.875	276.535	285.033	295.204	223.344	231.557	124.986	119.925	154.302	127.588	107.630	105.290	104.311	141.339	134.201	123.983	195.126	186.818	38.931
77.000	295.180	299.835	264.932	291.408	311.557	313.801	314.923	276.463	284.532	295.204	223.177	230.196	124.103	119.376	153.920	127.540	107.582	105.314	104.383	141.459	134.201	123.697	194.935	187.797	40.330
78.000	295.538	300.384	265.505	291.073	311.294	313.753	314.923	276.535	284.866	296.087	223.416	229.193	123.553	118.946	153.610	127.516	107.391	105.386	104.383	141.315	134.177	123.410	195.126	189.420	42.315
79.000	296.540	301.220	266.245	291.646	311.509	313.562	314.899	276.535	284.938	295.824	223.464	227.164	122.957	118.612	153.180	127.397	107.343	105.243	104.311	141.220	134.273	123.076	194.911	191.091	41.728
80.000	297.424	301.339	266.436	291.766	311.557	314.231	315.042	276.797	285.033	296.326	223.583	226.185	122.527	118.134	152.727	127.278	107.415	105.266	104.359	141.315	134.273	122.813	195.031	192.954	39.879
81.000	297.448	301.482	267.224	291.575	311.485	313.825	315.138	276.535	284.604	296.421	223.297	224.872	122.002	117.752	152.082	127.230	107.367	105.290	104.216	141.196	134.320	122.408	194.983	194.052	39.292
82.000	298.474	301.936	267.272	291.527	311.867	313.825	315.233	277.012	284.986	297.066	223.559	223.870	121.476	117.370	151.629	127.015	107.343	105.243	104.264	141.100	134.129	122.073	194.887	195.269	39.653
83.000	298.594	302.915	268.274	292.124	311.700	313.586	314.851	276.845	284.675	297.281	223.368	222.557	120.832	117.036	151.223	127.015	107.248	105.147	104.383	141.100	134.464	121.858	194.935	196.415	40.916
84.000	299.119	302.843	269.349	292.267	311.700	313.968	315.210	277.036	284.866	297.472	223.464	222.055	120.498	116.511	150.507	126.729	107.081	104.980	104.168	141.005	134.368	121.644	194.887	197.418	41.007
85.000	299.740	303.177	269.158	291.981	311.819	313.801	315.210	276.893	284.675	298.307	223.774	220.766	119.949	116.248	149.934	126.753	107.105	104.980	104.192	140.957	134.320	121.190	194.840	198.659	40.285
86.000	300.742	303.464	269.540	291.814	311.605	313.920	315.424	277.203	284.723	298.212	223.726	220.265	119.590	115.771	149.361	126.585	106.985	105.075	104.097	140.957	134.273	120.665	194.649	199.328	39.924
87.000	300.480	304.466	270.877	292.291	311.748	313.825	315.042	277.012	284.651	298.641	223.679	220.217	118.898	115.126	148.668	126.323	106.914	105.028	104.335	140.838	134.320	120.378	194.649	199.638	40.194
88.000	301.196	304.944	271.354	292.339	311.796	313.968	315.186	277.060	284.938	299.190	223.679	221.029	118.182	114.768	147.928	126.418	107.152	105.004	104.192	140.957	134.416	119.925	194.601	198.922	40.059
89.000	301.626	305.183	272.166	292.745	312.082	313.777	314.971	277.036	284.699	299.477	223.894	222.175	117.704	114.482	147.308	126.156	106.914	104.980	104.192	140.838	134.559	119.567	194.625	197.824	39.563
