-----------------------------------------------------
BloodHound 307 VOC Analyser V2017.1
RoboScientific Ltd 
Espace North
Wisbech Road
Littleport
Cambridgeshire, UK
CB6 1RA 
-----------------------------------------------------
Date = 24/03/2022
Time = 12:07:23
Data is protected by RoboScientific Limited
-----------------------------------------------------
Name of the experiment = "50a_Day 28"
-----------------------------------------------------
Repeat No. = 2/4
-----------------------------------------------------
Experimental Time (in sec) and Flow Profile :
-----------------------------------------------------
Baseline = 2.00
Absorb = 4.00
Pause = 1.00
Desorb = 5.00
Flush = 20.00
Wait = 5.00
Higher Flow (V) = 4.00
Medium Flow (V) = 3.00
Low Flow (V) = 1.00
-----------------------------------------------------
Total Profile Time = 37 in sec
-----------------------------------------------------
Acquired data point per second = 4
--------------------------------------------------
Total data point stored  = 128
-----------------------------------------------------
Acquired sensor responses from 24 sensors
-----------------------------------------------------

Data Points	 Sen-1	 Sen-2	 Sen-3	 Sen-4	 Sen-5	 Sen-6	 Sen-7	 Sen-8	 Sen-9	 Sen-10	 Sen-11	 Sen-12	 Sen-13	 Sen-14	 Sen-15	 Sen-16	 Sen-17	 Sen-18	 Sen-19	 Sen-20	 Sen-21	 Sen-22	 Sen-23	 Sen-24	Humidity (%r.h.)
0.000	305.947	306.687	278.206	293.437	312.536	314.016	315.329	277.824	284.866	301.793	223.153	228.835	113.336	113.001	141.268	125.463	106.460	104.861	103.929	140.217	134.225	117.060	195.293	190.304	40.736
1.000	306.424	306.854	278.516	293.604	312.369	314.183	315.544	277.991	284.866	301.793	222.986	229.671	113.240	112.834	141.148	125.439	106.412	104.908	104.073	140.337	134.201	116.893	195.341	189.993	39.247
2.000	306.018	307.021	278.755	293.318	312.369	314.087	315.544	277.824	284.723	301.888	222.939	229.862	113.121	112.858	141.124	125.368	106.293	104.693	103.906	140.241	134.440	117.155	195.174	189.731	38.931
3.000	306.520	306.782	278.444	293.270	312.655	314.565	315.591	277.776	285.033	302.246	222.963	229.623	113.264	112.739	140.886	125.177	106.317	105.123	104.216	140.337	134.297	116.845	195.365	189.707	40.510
4.000	306.329	307.116	278.755	293.246	312.249	314.135	315.377	277.800	284.508	301.578	223.344	229.766	113.240	112.667	140.647	125.272	106.412	104.861	103.953	140.098	134.249	116.917	195.293	189.564	42.405
5.000	306.711	306.830	278.779	293.532	312.774	314.231	315.329	277.967	284.962	302.031	223.201	229.695	113.049	112.787	140.695	125.416	106.556	105.004	104.049	140.217	134.201	116.845	195.341	189.659	41.593
6.000	306.257	306.782	278.898	293.652	312.631	314.255	315.377	277.728	284.604	302.031	223.297	229.647	113.001	112.787	140.599	125.296	106.508	104.861	104.049	140.122	134.273	116.845	195.341	189.707	39.427
7.000	306.305	306.687	279.280	293.556	312.583	314.398	315.305	277.728	284.771	302.198	222.963	229.528	112.930	112.787	140.504	125.272	106.293	104.813	104.025	140.241	134.129	116.893	195.341	189.898	39.066
8.000	306.138	306.758	278.874	293.723	312.607	314.040	315.186	277.633	284.842	302.151	222.939	229.193	113.121	112.906	140.480	125.201	106.269	105.004	104.097	140.193	134.249	116.917	195.389	190.065	39.518
9.000	306.902	306.209	278.731	293.628	312.822	314.350	315.591	277.776	284.866	302.007	223.058	228.931	113.097	112.954	140.647	125.296	106.365	104.741	103.929	140.002	134.177	116.917	195.341	190.328	41.774
10.000	305.087	305.469	278.516	293.819	312.751	314.111	315.210	277.704	285.272	301.267	222.939	250.847	114.458	113.765	140.790	125.463	106.460	105.028	104.144	140.217	134.034	117.561	195.484	170.775	41.909
11.000	278.779	288.233	276.535	292.243	311.963	313.419	314.995	277.227	285.797	290.333	221.053	287.182	142.700	132.100	142.843	126.490	106.723	105.338	104.144	140.647	133.389	129.570	197.179	131.790	39.743
12.000	234.135	243.207	270.113	289.259	311.056	312.822	314.780	275.460	285.965	259.608	219.358	301.697	186.150	177.507	149.170	129.402	107.415	106.054	104.407	142.079	132.769	160.223	198.779	116.057	48.045
13.000	243.804	256.075	261.184	283.983	310.077	311.772	314.350	272.476	286.466	236.093	218.498	309.957	174.858	162.228	157.621	134.225	108.561	106.985	104.622	145.135	132.625	182.282	199.949	107.630	48.722
14.000	267.677	280.498	251.396	275.627	308.788	311.247	314.064	268.871	286.108	220.265	217.615	315.114	151.557	137.973	167.600	142.366	109.707	107.701	105.099	148.859	132.888	198.158	200.880	102.187	38.796
15.000	286.466	296.063	243.541	266.221	307.403	309.408	313.276	264.765	285.750	234.374	216.875	318.385	133.891	123.291	177.173	152.202	111.306	109.134	105.481	152.751	133.485	184.765	201.572	100.372	29.411
16.000	300.265	306.114	237.215	257.460	305.612	308.262	312.870	260.253	284.651	248.054	216.087	320.724	120.116	112.476	184.884	161.441	113.049	110.614	106.078	157.525	134.320	171.253	202.002	97.579	34.419
17.000	308.644	313.419	235.735	249.438	304.084	306.424	312.440	255.407	283.458	260.157	216.063	323.040	109.922	106.054	186.317	169.510	114.959	112.405	106.723	162.515	135.156	158.624	202.455	95.669	47.955
18.000	315.759	317.597	237.812	242.563	301.530	304.252	311.533	249.820	282.670	270.399	215.514	325.212	102.831	101.232	181.494	176.290	117.203	114.291	107.511	167.958	135.992	147.809	203.171	95.025	53.053
19.000	321.178	321.727	241.441	235.401	299.286	301.602	310.578	243.661	281.643	280.689	215.251	325.141	99.274	97.245	175.359	182.927	119.328	116.630	108.513	174.046	136.923	137.734	203.243	94.452	42.721
20.000	324.114	324.090	244.759	228.692	296.708	298.737	309.074	237.143	280.856	288.400	215.418	326.526	94.523	95.502	169.295	189.683	122.097	119.590	109.540	180.372	138.045	130.381	203.219	93.759	30.268
21.000	326.549	326.072	248.364	222.557	293.652	295.395	308.238	231.700	279.638	294.368	215.060	326.836	92.542	93.234	164.974	196.511	124.795	122.742	110.877	186.460	139.071	123.959	203.768	93.425	30.539
22.000	329.319	327.504	252.518	217.615	291.002	291.885	306.472	225.589	278.468	299.525	215.060	327.289	90.632	91.826	160.247	201.357	127.827	126.562	112.787	192.906	140.289	119.447	203.625	92.733	43.082
23.000	330.298	328.794	255.526	220.456	287.731	287.803	304.371	220.050	277.322	302.246	215.251	327.457	88.865	90.369	155.711	198.110	131.360	130.644	114.505	198.325	141.268	115.580	203.673	91.754	53.505
24.000	330.990	329.605	258.486	226.257	283.983	283.768	302.246	218.474	276.033	305.660	215.060	327.767	87.934	90.131	152.393	191.951	134.726	134.607	116.511	200.283	142.676	112.500	203.768	91.802	48.361
25.000	332.040	329.820	260.444	230.602	280.545	279.375	300.193	221.148	274.887	307.904	215.275	328.722	88.173	89.056	149.623	188.251	138.474	139.071	119.089	197.704	143.965	110.757	204.031	91.897	34.870
26.000	331.993	330.130	261.924	230.316	279.423	278.277	299.477	220.718	274.744	307.976	214.678	328.650	87.863	88.603	148.883	188.632	140.026	140.695	119.949	197.991	144.276	110.733	203.911	92.279	28.283
27.000	331.993	330.703	262.449	229.743	279.065	277.967	298.808	220.193	274.529	307.761	214.869	328.388	87.266	88.913	148.406	189.349	139.596	140.575	120.426	198.373	144.467	110.781	203.792	91.539	37.036
28.000	331.825	330.512	262.807	228.668	279.734	278.158	298.785	219.787	275.126	307.570	214.965	329.319	87.194	88.388	148.453	190.518	139.382	140.551	120.545	198.803	143.965	111.712	203.840	92.017	50.752
29.000	331.611	330.775	262.497	227.642	280.259	278.373	298.307	219.620	275.174	307.331	214.965	328.650	86.717	89.176	148.812	191.330	139.023	140.241	120.641	199.089	143.798	111.784	203.911	91.873	52.196
30.000	333.210	330.847	263.786	230.339	279.017	276.678	298.045	221.315	274.649	308.549	215.251	328.531	86.884	88.412	147.499	188.465	139.716	141.435	121.620	196.917	144.109	110.041	203.983	91.706	40.014
31.000	332.016	331.778	264.956	235.281	275.436	273.503	295.657	223.106	273.908	308.668	214.678	329.390	87.146	88.483	145.756	183.715	143.297	145.063	123.506	195.389	145.254	109.946	203.935	92.566	28.824
32.000	330.656	330.847	266.412	237.143	273.097	271.354	294.583	221.912	274.338	306.161	215.108	328.459	88.316	88.292	144.681	181.733	146.353	147.284	124.723	196.320	144.490	112.357	203.983	92.924	32.930
33.000	329.677	330.059	267.415	236.785	273.431	272.381	294.511	220.265	276.033	300.957	215.418	326.502	90.465	89.558	143.774	182.067	145.971	146.878	124.628	198.922	142.676	117.967	203.482	93.807	46.646
34.000	326.955	329.056	267.463	234.040	275.054	273.717	295.872	225.517	277.895	292.172	216.135	323.780	92.661	90.274	143.679	184.049	143.846	144.753	123.506	192.786	140.862	126.633	202.431	95.741	53.730
35.000	323.446	328.674	266.555	230.220	277.752	276.272	297.185	232.655	279.638	281.739	216.588	322.634	95.860	91.062	144.658	188.465	141.148	142.485	122.360	185.195	139.382	137.639	201.835	97.149	43.894
36.000	320.032	326.215	266.102	224.849	280.879	279.137	298.283	238.695	280.879	269.205	217.305	320.509	100.014	93.258	145.231	194.147	138.283	139.501	120.736	178.224	137.949	150.626	201.118	98.749	31.486
37.000	314.708	324.305	265.051	218.856	284.126	282.336	299.954	244.711	282.097	254.643	218.212	317.263	104.741	94.619	146.591	200.044	134.917	136.397	119.089	172.064	136.899	164.759	200.402	101.829	30.900
38.000	308.668	321.249	263.285	219.883	286.728	285.153	301.530	249.414	282.885	238.051	218.976	314.064	110.972	97.436	148.453	198.803	131.981	133.389	117.585	166.955	135.944	181.065	199.710	105.147	42.180
39.000	299.692	317.907	261.303	227.880	289.378	287.851	302.939	253.330	283.697	221.339	219.143	310.841	119.447	101.232	150.936	190.972	129.426	130.716	116.177	163.040	135.514	197.752	199.065	108.418	51.655
40.000	288.089	314.135	259.035	236.117	292.196	290.978	304.705	256.600	283.911	228.453	219.692	307.427	132.267	105.338	153.968	182.664	126.705	127.898	114.577	159.865	134.893	190.996	198.707	111.712	47.143
41.000	272.691	309.766	255.717	243.876	294.440	293.389	305.851	258.988	284.413	239.650	220.002	303.177	147.761	110.447	157.311	174.738	124.079	125.225	113.145	156.929	134.750	179.226	198.492	115.699	36.179
42.000	256.003	303.201	252.351	250.560	296.397	295.538	307.140	261.375	284.914	248.817	220.289	300.002	164.496	116.033	161.178	167.672	122.217	123.028	111.879	155.019	134.511	169.892	198.158	118.540	30.900
43.000	241.011	295.729	248.985	256.815	298.426	298.212	307.952	263.022	284.341	256.075	220.647	297.018	178.534	122.837	165.141	161.703	120.259	120.522	110.805	153.276	134.392	162.658	197.728	121.978	37.217
44.000	228.310	287.421	245.236	261.279	300.050	300.169	309.313	264.884	284.842	262.163	220.671	293.556	190.829	131.432	169.367	157.143	118.683	118.588	109.969	151.748	134.511	156.881	197.561	124.843	47.504
45.000	220.766	276.630	242.014	265.744	301.530	302.055	310.196	266.173	284.651	267.033	220.838	290.405	198.994	143.058	174.141	152.918	117.418	116.654	109.038	150.745	134.273	152.082	197.466	127.564	48.541
46.000	224.705	263.261	238.122	269.492	302.986	303.774	310.626	267.415	284.532	271.354	221.124	287.588	194.529	156.284	178.439	149.289	116.009	115.007	108.346	149.647	134.320	147.785	197.275	130.310	40.826
47.000	232.703	248.412	235.377	272.237	303.607	305.159	311.557	268.680	284.532	274.243	221.578	284.771	186.460	171.181	182.760	146.305	115.007	113.694	107.773	148.644	134.273	144.562	197.036	133.151	33.427
48.000	239.841	234.088	233.467	274.625	305.016	306.782	311.748	269.062	284.723	276.678	221.578	282.455	179.226	184.741	186.245	143.822	113.932	112.381	107.320	147.976	134.368	142.318	196.917	135.586	34.825
49.000	246.430	223.201	232.297	276.940	305.421	307.331	311.939	269.683	284.675	278.635	221.578	281.166	173.139	196.296	188.489	141.554	113.216	111.259	106.985	146.997	134.273	140.360	196.535	136.899	43.217
50.000	252.900	228.740	232.751	279.304	306.543	308.740	312.607	270.495	284.341	280.498	221.578	278.588	167.266	191.617	188.847	139.764	112.524	110.232	106.579	146.615	134.440	138.713	196.726	138.785	47.098
51.000	258.271	239.268	234.660	280.498	306.758	309.647	313.252	271.139	284.628	282.049	221.793	276.726	161.536	180.587	186.818	137.997	111.975	109.516	106.126	146.090	134.297	136.755	196.773	141.029	43.714
52.000	263.404	249.438	236.809	281.954	307.618	310.005	313.156	271.903	284.723	283.625	221.840	274.720	156.069	169.390	183.929	136.684	111.330	108.991	106.078	145.565	134.344	135.538	196.773	142.939	36.810
53.000	267.892	259.274	239.149	283.267	307.713	310.459	313.228	272.190	284.938	285.320	222.127	272.046	151.366	159.650	180.969	135.610	110.924	108.179	105.839	145.350	134.249	133.867	196.606	145.422	34.329
54.000	272.309	267.415	241.918	284.174	308.477	310.936	313.873	272.643	284.866	287.158	221.817	270.017	147.069	151.605	177.698	134.511	110.423	107.773	105.529	144.705	134.320	132.554	196.582	147.737	39.247
55.000	275.580	274.052	244.807	285.439	308.859	311.819	313.992	273.097	284.699	287.994	222.366	266.746	144.013	145.565	174.977	133.700	110.065	107.439	105.410	144.490	134.368	131.336	196.344	150.578	45.744
56.000	279.041	278.922	247.409	286.466	309.456	312.034	314.183	273.431	284.628	288.973	222.461	264.335	141.053	140.480	172.136	132.602	109.588	107.152	105.386	144.252	134.392	130.334	196.391	153.133	44.797
57.000	280.808	282.694	249.987	286.824	309.671	312.249	313.968	273.717	284.914	290.023	222.390	261.876	138.904	136.660	169.581	132.100	109.349	106.770	105.123	143.846	134.511	129.641	196.081	155.830	40.014
58.000	282.336	285.726	252.160	287.206	309.766	312.488	314.326	273.717	284.747	290.047	222.318	259.513	137.448	133.676	167.075	131.551	109.110	106.603	105.052	143.679	134.392	129.020	196.081	158.361	35.908
59.000	284.031	288.137	253.807	288.042	310.292	312.321	314.016	274.052	284.890	290.524	222.342	257.030	135.824	131.527	165.117	130.954	108.871	106.365	104.956	143.536	134.416	128.495	196.105	160.581	37.623
60.000	284.938	289.904	255.478	288.424	310.315	312.416	314.278	274.314	284.795	291.217	222.151	254.929	134.822	129.880	163.613	130.548	108.847	106.245	104.861	143.321	134.488	128.161	196.081	162.658	43.082
61.000	285.750	291.026	256.934	288.471	310.292	312.631	314.446	274.505	284.628	291.599	222.366	252.589	133.795	128.233	161.942	130.286	108.489	106.150	104.837	143.130	134.320	127.851	196.057	164.831	44.481
62.000	286.919	292.434	258.391	288.662	310.244	312.631	314.541	275.030	284.842	291.766	222.318	251.372	132.673	127.206	160.724	129.975	108.370	106.197	104.765	143.034	134.440	127.731	196.033	166.884	41.864
63.000	287.970	293.365	259.083	289.283	310.530	312.751	314.565	275.341	285.201	291.814	222.461	248.865	131.790	126.132	159.579	129.880	108.274	106.054	104.646	142.867	134.416	127.373	196.105	168.865	38.164
64.000	289.044	294.535	260.563	289.546	311.032	313.133	314.684	275.030	284.532	291.837	222.222	246.884	130.716	125.105	158.433	129.474	108.274	106.054	104.693	142.676	134.368	127.015	195.938	170.966	37.532
65.000	289.713	294.965	261.661	289.569	311.032	313.085	314.899	275.293	284.747	292.386	222.509	244.878	130.047	124.317	157.669	129.450	108.036	105.959	104.646	142.604	134.440	126.896	196.057	173.043	40.781
66.000	290.572	295.800	262.497	289.928	310.936	313.300	315.138	275.460	284.723	292.458	222.533	243.279	129.498	123.649	156.929	129.164	108.036	105.863	104.574	142.533	134.392	126.705	195.962	174.571	44.075
67.000	290.524	296.588	263.165	290.119	310.817	313.037	314.565	275.412	284.842	292.554	222.485	241.990	128.806	123.028	156.141	128.925	107.869	105.935	104.670	142.437	134.368	126.538	195.890	176.266	42.856
68.000	291.455	297.400	264.001	289.904	310.888	313.109	314.732	275.580	284.914	292.959	222.127	240.366	128.137	122.360	155.401	128.877	107.940	105.839	104.598	142.413	134.344	126.371	195.818	177.579	39.698
69.000	291.814	297.925	264.455	290.142	310.912	313.300	314.756	275.484	284.484	293.007	222.485	239.053	127.660	121.954	154.828	128.662	107.630	105.720	104.431	142.318	134.416	126.203	196.009	179.250	38.209
70.000	292.386	297.830	265.219	290.095	311.247	313.467	314.613	275.580	284.699	293.485	222.748	237.573	127.063	121.524	154.255	128.662	107.606	105.601	104.455	142.175	134.297	125.917	195.962	180.468	39.157
71.000	293.007	298.212	265.720	290.262	310.960	313.324	314.971	275.771	284.699	292.959	222.557	236.021	126.872	121.166	153.682	128.471	107.654	105.577	104.550	142.223	134.368	125.917	195.890	181.876	42.676
72.000	293.341	298.522	266.078	290.500	311.199	313.252	314.660	275.747	284.580	293.485	222.581	235.042	126.323	120.569	153.133	128.328	107.725	105.648	104.455	142.079	134.297	125.702	195.842	182.927	42.856
73.000	293.509	299.381	266.770	290.477	311.605	313.347	314.851	275.771	284.508	293.532	222.533	234.374	125.750	120.354	152.775	128.471	107.487	105.577	104.407	141.960	134.416	125.559	195.914	183.977	40.510
74.000	294.631	299.525	266.985	290.715	311.247	313.276	314.780	275.914	284.842	293.723	222.604	233.443	125.320	120.283	152.345	128.185	107.654	105.577	104.335	141.912	134.273	125.320	195.842	185.099	39.247
75.000	295.251	299.668	267.248	291.073	311.485	313.586	314.923	275.985	284.938	294.082	222.533	232.321	124.795	119.710	151.867	127.946	107.463	105.505	104.431	141.769	134.273	124.986	195.986	185.959	39.021
76.000	294.654	300.384	267.701	290.787	311.247	313.204	314.828	275.818	284.532	294.153	222.748	231.509	124.341	119.567	151.724	128.042	107.487	105.457	104.311	141.817	134.344	124.867	195.747	186.985	41.187
77.000	295.681	300.599	267.701	291.026	311.557	313.658	314.708	275.890	284.890	294.511	222.581	230.435	123.935	119.304	151.438	128.066	107.511	105.553	104.407	141.793	134.320	124.628	195.890	188.155	42.495
78.000	295.944	300.981	268.131	291.193	311.605	313.825	314.995	275.818	284.747	294.678	222.509	229.456	123.339	118.898	151.056	127.875	107.367	105.481	104.383	141.769	134.249	124.508	195.890	189.229	41.142
79.000	296.278	301.196	268.847	291.050	311.438	313.562	315.019	276.200	284.556	294.798	222.676	228.215	123.052	118.683	150.650	127.684	107.296	105.553	104.407	141.673	134.344	124.150	195.723	190.375	39.292
80.000	297.209	301.291	269.587	291.050	311.652	313.562	314.828	276.224	284.580	295.084	222.772	227.307	122.670	118.254	150.101	127.469	107.343	105.434	104.311	141.697	134.392	123.959	195.627	191.450	39.112
81.000	297.615	301.458	269.134	291.599	311.891	313.682	315.162	276.367	284.675	295.299	222.628	226.520	122.312	117.872	149.647	127.636	107.391	105.338	104.120	141.626	134.344	123.721	195.699	192.261	40.149
82.000	297.543	301.840	269.611	291.264	311.581	313.538	314.804	276.296	284.962	295.800	222.772	225.780	121.882	117.848	149.552	127.516	107.248	105.505	104.335	141.626	134.368	123.530	195.842	193.049	41.638
83.000	297.854	301.793	270.280	291.360	311.557	313.586	315.210	276.511	284.819	295.466	222.819	225.135	121.620	117.633	149.074	127.588	107.176	105.243	104.192	141.482	134.440	123.458	195.675	193.909	41.322
84.000	298.092	302.175	270.304	291.479	311.700	313.467	314.947	276.535	284.819	295.944	222.437	224.634	121.739	117.346	148.764	127.397	107.272	105.314	104.216	141.650	134.392	123.291	195.627	194.601	39.833
85.000	298.212	302.485	270.996	291.527	311.557	313.443	314.780	276.463	284.771	296.111	222.581	223.870	121.095	117.155	148.501	127.254	107.152	105.266	104.264	141.459	134.416	123.148	195.508	195.293	39.202
86.000	298.307	302.389	270.877	291.957	312.130	313.443	314.780	276.487	284.556	296.182	222.843	223.655	120.784	117.036	148.262	127.182	107.248	105.457	104.288	141.315	134.297	122.790	195.604	195.580	39.608
87.000	298.976	302.915	271.235	291.837	311.891	313.658	315.138	276.630	284.890	296.493	222.628	223.130	120.593	116.917	147.976	127.158	107.152	105.362	104.240	141.291	134.297	122.670	195.627	195.938	40.781
88.000	298.785	302.915	271.354	291.623	311.843	313.634	315.138	276.702	284.842	296.349	222.628	222.748	120.474	116.821	147.785	127.158	107.009	105.266	104.192	141.387	134.273	122.646	195.651	196.582	40.961
89.000	299.692	302.843	271.831	291.837	311.843	313.873	315.233	276.702	284.795	296.708	222.772	222.772	120.044	116.726	147.666	127.039	106.961	105.362	104.216	141.315	134.297	122.479	195.604	196.964	40.420
