-----------------------------------------------------
BloodHound 307 VOC Analyser V2017.1
RoboScientific Ltd 
Espace North
Wisbech Road
Littleport
Cambridgeshire, UK
CB6 1RA 
-----------------------------------------------------
Date = 24/03/2022
Time = 12:08:45
Data is protected by RoboScientific Limited
-----------------------------------------------------
Name of the experiment = "50a_Day 28"
-----------------------------------------------------
Repeat No. = 4/4
-----------------------------------------------------
Experimental Time (in sec) and Flow Profile :
-----------------------------------------------------
Baseline = 2.00
Absorb = 4.00
Pause = 1.00
Desorb = 5.00
Flush = 20.00
Wait = 5.00
Higher Flow (V) = 4.00
Medium Flow (V) = 3.00
Low Flow (V) = 1.00
-----------------------------------------------------
Total Profile Time = 37 in sec
-----------------------------------------------------
Acquired data point per second = 4
--------------------------------------------------
Total data point stored  = 128
-----------------------------------------------------
Acquired sensor responses from 24 sensors
-----------------------------------------------------

Data Points	 Sen-1	 Sen-2	 Sen-3	 Sen-4	 Sen-5	 Sen-6	 Sen-7	 Sen-8	 Sen-9	 Sen-10	 Sen-11	 Sen-12	 Sen-13	 Sen-14	 Sen-15	 Sen-16	 Sen-17	 Sen-18	 Sen-19	 Sen-20	 Sen-21	 Sen-22	 Sen-23	 Sen-24	Humidity (%r.h.)
0.000	307.236	307.666	280.450	293.556	312.583	314.350	315.281	278.062	284.795	302.700	223.512	234.111	112.739	112.046	139.525	125.153	106.221	104.837	103.953	140.050	134.201	115.962	195.198	185.219	40.510
1.000	307.069	307.618	280.235	293.843	312.536	314.111	315.400	277.871	284.890	303.058	223.440	233.729	112.428	112.142	139.286	125.129	106.293	104.765	103.882	140.002	134.320	116.344	195.054	185.219	39.157
2.000	307.427	307.522	280.378	293.986	312.870	314.326	315.544	277.919	284.484	302.748	223.201	234.135	112.476	112.166	139.095	125.010	106.293	104.765	104.025	140.169	134.320	116.081	195.150	185.195	38.886
3.000	307.284	307.666	280.378	293.891	312.727	314.493	315.281	277.919	284.890	303.392	223.273	234.470	112.452	112.094	138.952	125.081	106.317	104.837	103.977	140.098	134.249	115.914	195.078	185.195	41.097
4.000	307.427	307.498	280.498	293.795	312.965	314.255	315.233	277.895	284.508	302.652	223.512	233.825	112.333	112.070	139.143	125.034	106.245	104.789	104.001	139.978	134.297	115.986	195.126	185.219	42.856
5.000	307.116	307.522	280.545	294.082	312.536	314.231	315.472	278.039	284.699	302.676	223.321	234.111	112.452	112.118	138.809	125.081	106.245	104.741	103.906	139.955	134.249	116.105	195.174	185.195	41.774
6.000	307.260	307.260	280.402	293.795	312.989	314.565	315.210	277.824	284.938	303.392	223.273	234.422	112.261	112.023	138.904	125.105	106.365	104.813	103.929	140.050	134.464	115.986	195.126	184.932	39.382
7.000	307.713	307.761	280.545	293.723	313.133	314.231	315.735	277.895	284.651	302.819	223.464	235.735	112.214	111.736	138.641	124.986	106.245	104.837	104.025	140.026	134.344	115.842	195.078	183.428	38.886
8.000	307.498	307.856	280.784	293.509	312.679	314.207	315.162	278.062	284.962	303.177	223.130	237.239	111.879	111.641	138.594	124.867	106.126	104.765	103.953	140.050	134.320	115.675	195.102	181.996	39.518
9.000	307.570	307.570	281.142	294.249	312.942	314.517	315.472	277.919	284.532	303.225	223.631	237.287	111.736	111.497	138.379	124.843	106.174	104.646	103.858	140.050	134.392	115.580	194.935	181.685	42.856
10.000	306.400	306.782	281.094	294.296	312.918	314.350	315.329	277.967	284.819	302.461	222.700	245.260	113.240	112.596	138.379	124.890	106.365	104.861	103.953	139.978	134.034	116.153	195.174	174.667	42.856
11.000	281.620	290.644	278.850	292.816	312.201	313.538	315.138	277.848	285.893	293.580	220.790	285.201	139.382	130.119	140.575	126.180	106.579	105.195	104.144	140.241	133.437	126.466	197.108	133.628	40.465
12.000	238.218	246.358	273.001	289.999	311.509	313.204	314.780	275.747	286.418	264.813	219.549	300.289	181.065	173.950	146.711	128.543	107.272	105.911	104.479	141.960	132.983	155.090	198.659	116.726	48.316
13.000	238.695	252.876	264.001	284.842	310.339	312.082	314.947	273.216	286.585	242.109	219.167	309.098	178.701	164.759	154.637	132.983	108.298	106.579	104.455	144.610	132.530	176.266	199.805	108.704	47.368
14.000	263.523	278.397	254.213	276.940	309.122	311.270	314.422	269.516	286.060	223.607	217.806	314.780	154.470	139.429	164.926	141.291	109.444	107.630	104.884	148.239	132.864	194.529	200.498	103.595	36.585
15.000	283.052	295.442	245.905	267.582	307.618	309.981	313.825	265.648	285.463	228.000	217.233	317.907	136.445	124.103	174.810	150.865	110.710	108.585	105.505	152.297	133.509	190.638	201.429	100.038	29.411
16.000	297.758	305.541	238.528	259.202	306.400	308.477	313.061	261.232	284.628	241.632	216.445	320.700	121.667	113.670	183.213	160.104	112.619	110.041	105.911	156.833	134.225	176.553	201.906	98.057	36.224
17.000	307.212	311.819	236.188	251.014	303.989	306.830	312.416	256.051	283.529	254.834	216.206	323.040	111.163	106.293	187.105	168.221	114.601	111.879	106.723	161.823	135.013	163.685	202.407	96.624	49.218
18.000	315.400	317.167	236.618	243.923	302.175	304.920	311.605	250.560	282.861	266.293	215.466	323.995	104.407	101.566	182.998	174.929	116.606	113.670	107.248	167.003	135.992	151.247	202.909	95.526	52.467
19.000	319.817	321.130	239.841	237.382	299.549	302.485	310.912	244.950	281.787	277.036	215.275	325.308	98.797	98.057	177.770	181.638	118.922	116.033	108.322	172.995	136.923	140.480	203.052	94.261	40.871
20.000	323.947	323.876	243.565	230.220	297.352	299.811	309.456	238.528	280.784	285.941	215.084	325.499	95.287	95.240	171.730	188.298	121.429	118.803	109.420	179.107	137.854	132.411	203.577	93.401	29.366
21.000	327.146	325.809	247.600	224.085	295.108	296.922	308.740	233.467	279.829	292.506	215.156	326.406	93.640	92.303	166.191	194.959	124.365	122.073	110.710	185.577	138.856	125.702	203.697	93.210	31.847
22.000	328.340	327.385	250.680	218.379	291.790	293.318	306.997	227.116	279.137	297.567	215.442	327.385	90.465	92.112	161.488	200.712	127.230	125.607	112.309	191.545	140.002	120.927	203.744	93.163	45.157
23.000	329.844	328.674	254.117	219.119	288.925	289.617	305.207	221.458	277.919	301.626	215.156	327.719	89.629	90.656	156.952	199.638	130.572	129.498	114.100	197.131	141.291	116.272	203.959	92.351	53.865
24.000	330.942	329.032	257.364	224.849	284.842	284.795	303.034	218.188	276.320	305.183	215.204	328.149	88.245	90.250	153.586	193.837	133.700	133.270	116.033	200.975	142.103	113.312	203.959	92.255	46.466
25.000	331.754	330.250	259.895	228.859	281.309	280.569	300.766	219.907	275.221	306.973	215.204	328.746	87.719	89.558	150.650	190.113	137.567	137.567	118.301	198.779	143.679	111.474	203.816	90.895	33.291
26.000	332.279	329.987	261.470	228.883	280.116	279.017	299.740	219.907	275.054	307.116	215.228	329.008	87.481	89.104	149.623	189.993	139.095	139.453	119.304	198.874	143.941	111.641	204.102	92.303	28.824
27.000	332.518	329.987	261.972	227.976	280.498	279.519	299.286	219.692	274.672	306.949	215.299	328.626	87.290	88.818	149.408	191.139	138.689	139.429	119.471	199.232	143.918	111.808	203.888	92.733	38.254
28.000	331.300	330.560	261.996	226.591	280.832	279.232	299.429	219.429	275.412	306.018	214.965	328.531	87.863	88.245	149.050	192.357	138.451	139.382	119.925	199.805	143.822	112.428	204.007	92.303	51.925
29.000	332.112	330.990	262.258	225.708	281.118	279.662	298.880	219.358	275.293	306.352	214.965	329.581	86.430	88.865	149.050	193.025	138.021	139.143	120.283	199.567	143.631	112.428	203.935	91.277	51.700
30.000	333.616	330.727	263.500	229.790	279.280	277.346	297.734	221.244	274.816	307.785	214.941	329.080	87.170	88.054	147.785	188.609	139.429	141.053	121.309	197.036	144.228	110.614	203.721	91.205	38.751
31.000	332.446	331.515	264.717	233.992	275.866	273.932	295.944	221.912	273.670	307.666	214.893	329.080	87.146	88.937	146.353	184.622	143.010	144.753	123.267	196.415	145.135	110.853	203.911	91.993	28.599
32.000	330.178	330.584	265.672	235.615	273.765	272.739	295.299	220.360	274.887	304.061	214.989	328.125	88.841	88.770	145.111	183.547	145.302	145.995	124.246	198.325	143.750	114.864	204.031	92.924	32.975
33.000	327.982	330.345	266.269	234.398	274.458	273.574	295.490	222.055	277.275	297.758	215.633	325.356	90.966	89.534	144.610	184.240	144.443	145.087	123.530	196.845	141.936	120.760	203.100	93.974	47.052
34.000	325.714	328.268	266.269	231.581	276.964	275.842	296.684	228.525	278.540	288.710	216.254	323.899	93.640	90.632	144.538	187.128	142.270	142.939	122.694	189.826	140.265	130.214	202.384	95.717	53.279
35.000	322.825	327.862	266.173	227.212	279.805	278.421	297.639	234.947	280.378	277.609	216.708	322.443	96.481	91.897	145.636	191.736	139.573	140.408	121.500	182.688	138.546	141.650	201.548	97.985	44.075
36.000	318.719	325.738	265.004	221.482	282.145	280.736	299.143	241.106	281.309	264.908	217.519	319.316	100.611	94.022	146.376	197.203	136.541	137.687	119.662	175.884	137.591	155.186	200.880	100.110	32.208
37.000	314.207	323.732	263.380	217.352	284.986	283.362	300.647	246.120	282.193	250.608	218.092	316.761	105.052	95.813	147.785	202.073	133.843	135.132	118.540	170.632	136.660	168.603	200.283	102.402	30.223
38.000	308.262	321.202	262.425	221.673	287.779	286.251	301.936	250.321	282.861	235.759	218.809	314.422	111.497	98.176	149.838	197.036	131.074	132.315	116.845	166.359	135.968	183.046	199.662	104.956	41.007
39.000	300.909	317.692	260.038	228.835	290.142	288.829	303.559	253.926	283.506	221.793	219.119	311.151	118.636	101.447	151.820	189.969	128.615	129.999	115.842	162.706	135.371	197.561	199.161	107.630	50.978
40.000	292.052	314.875	257.675	236.260	292.386	291.264	304.681	256.958	283.697	223.679	219.453	307.785	128.567	105.052	154.804	182.569	126.323	127.660	114.482	159.769	135.013	196.009	198.922	110.638	48.496
41.000	279.184	310.721	255.430	243.398	294.559	293.509	306.042	259.274	284.293	234.040	219.525	304.848	140.384	109.015	157.860	175.478	124.246	125.463	113.097	157.549	134.822	185.362	198.683	113.264	37.758
42.000	265.505	306.138	252.207	249.295	296.182	295.323	306.782	261.112	284.413	242.825	219.668	302.437	155.043	113.431	161.727	169.247	122.384	123.219	111.855	155.281	134.631	176.242	198.373	116.320	30.945
43.000	251.276	300.121	249.438	254.762	298.068	297.519	308.000	263.070	284.747	250.298	219.931	299.477	168.030	118.946	165.093	163.756	120.760	121.023	111.163	153.467	134.368	168.555	198.206	118.850	35.863
44.000	238.170	293.270	245.618	259.417	299.214	299.692	308.835	264.502	284.795	257.102	220.551	296.588	180.587	125.798	169.319	158.958	119.304	119.185	110.113	152.178	134.368	162.300	198.110	121.858	46.421
45.000	227.403	284.723	242.443	263.929	300.623	301.100	309.719	265.744	284.508	262.067	220.456	293.723	191.426	134.607	173.568	154.684	117.895	117.394	109.277	150.960	134.440	157.167	197.752	124.485	49.669
46.000	221.100	274.672	239.650	267.391	301.912	303.201	310.268	266.794	284.413	266.197	220.814	291.885	198.564	145.063	177.531	151.271	116.773	116.033	108.752	149.886	134.273	152.703	197.490	126.657	42.315
47.000	222.318	263.022	236.332	270.662	303.344	303.989	311.079	267.677	284.341	269.563	220.766	288.996	197.299	156.642	181.351	148.095	115.508	114.649	108.060	149.003	134.368	149.408	197.490	128.901	33.923
48.000	229.002	249.725	234.183	272.834	303.822	305.374	311.533	268.489	284.628	272.572	220.933	286.872	190.518	168.985	184.860	145.732	114.744	113.336	107.701	148.119	134.201	146.209	197.179	131.026	33.336
49.000	237.000	235.711	233.061	275.126	304.872	306.663	311.843	269.420	284.938	275.412	221.244	285.081	182.831	182.879	187.391	143.392	113.885	112.142	107.057	147.379	134.225	143.631	196.988	132.792	41.367
50.000	244.544	223.464	232.488	277.298	305.541	307.904	312.130	270.184	284.866	277.919	221.745	282.718	175.072	195.317	188.991	141.244	113.121	111.020	106.818	146.854	134.201	140.886	196.964	135.490	48.045
51.000	251.396	227.284	233.324	279.734	306.615	308.597	312.464	270.877	284.580	280.450	221.697	280.474	168.268	192.548	187.869	138.976	112.428	110.160	106.484	146.209	134.153	138.546	196.893	137.854	45.022
52.000	257.006	236.976	234.804	281.739	307.093	309.480	312.846	271.664	284.675	282.169	221.458	277.728	162.563	182.187	185.720	137.591	111.736	109.229	106.126	145.804	134.225	137.090	196.797	140.169	38.480
53.000	261.375	247.146	237.478	282.145	307.427	310.005	312.918	271.855	284.962	283.911	221.506	275.627	157.716	172.040	182.903	136.541	111.259	108.633	105.887	145.278	134.368	135.729	196.558	142.270	33.652
54.000	265.982	256.242	240.438	283.386	308.024	310.841	313.562	272.452	284.699	284.747	221.578	273.885	153.658	162.587	180.014	135.299	110.829	108.298	105.672	145.040	134.177	134.320	196.630	143.870	38.074
55.000	269.062	263.738	242.921	284.580	308.382	311.103	313.753	273.073	284.819	285.726	221.840	272.213	150.316	155.878	177.388	134.344	110.447	107.845	105.648	144.729	134.368	133.509	196.630	145.827	45.293
56.000	271.975	269.969	245.356	285.033	308.740	311.676	313.801	273.025	284.699	286.442	221.793	270.208	147.761	149.504	174.738	133.724	110.041	107.511	105.410	144.299	134.249	132.554	196.558	147.761	46.195
57.000	274.625	274.959	247.409	285.845	309.217	311.700	314.087	273.861	284.651	287.087	222.031	268.274	145.135	144.777	172.518	133.174	109.898	107.272	105.338	144.085	134.344	131.885	196.367	149.289	41.367
58.000	276.654	278.468	249.390	286.418	309.480	312.130	314.302	273.956	284.675	287.683	222.318	266.699	142.676	140.575	170.465	132.434	109.373	107.033	105.266	143.918	134.297	131.265	196.535	151.008	35.637
59.000	278.349	281.906	251.133	286.728	309.790	312.058	314.135	274.028	284.962	288.495	221.888	265.028	141.172	137.543	168.388	131.838	109.325	106.818	105.147	143.631	134.440	130.668	196.391	152.607	36.224
60.000	280.402	284.341	252.757	287.349	309.695	312.273	314.087	274.458	284.747	289.116	222.175	263.404	139.262	135.013	166.645	131.527	109.062	106.556	105.052	143.512	134.440	130.214	196.296	154.231	42.089
61.000	281.858	286.418	254.284	287.516	310.435	312.918	314.684	274.696	284.508	289.331	221.769	261.566	137.973	133.103	165.117	131.312	108.919	106.508	104.932	143.345	134.320	129.761	196.296	156.308	45.473
62.000	282.980	288.352	255.884	288.185	309.838	312.536	314.302	274.672	285.057	289.880	222.246	259.680	136.708	131.026	163.732	130.668	108.871	106.388	104.884	143.273	134.535	129.450	196.176	158.146	42.947
63.000	284.365	289.760	256.720	288.304	310.244	312.464	314.565	274.481	284.890	290.453	222.270	258.343	135.442	129.689	162.515	130.477	108.537	106.245	104.861	143.010	134.320	128.949	196.248	159.937	38.480
64.000	284.986	291.193	258.319	288.710	310.506	312.560	314.350	274.720	284.508	290.357	222.199	256.194	134.320	128.304	161.250	130.190	108.465	106.293	104.813	142.748	134.225	128.662	196.105	161.775	36.179
65.000	286.442	292.243	258.964	288.829	310.912	312.679	314.493	275.293	284.962	290.859	222.008	254.284	133.055	127.087	160.319	129.975	108.370	106.174	104.598	142.652	134.416	128.280	196.105	163.303	39.112
66.000	287.134	293.556	260.038	289.068	310.578	312.965	314.446	275.174	285.129	291.408	222.413	252.375	132.363	126.275	159.268	129.808	108.298	106.078	104.670	142.700	134.392	128.113	195.914	165.189	44.526
67.000	288.495	294.368	261.327	289.450	310.578	312.774	314.613	275.341	284.723	291.527	222.652	250.632	131.527	125.248	158.313	129.450	108.036	105.911	104.646	142.509	134.320	127.636	195.818	166.908	43.578
68.000	289.331	294.869	261.566	289.402	311.151	313.395	314.804	275.460	284.986	291.885	222.151	249.462	130.739	124.341	157.454	129.355	108.203	105.983	104.741	142.533	134.344	127.397	196.105	168.722	40.285
69.000	289.880	296.135	262.545	289.951	311.199	313.109	314.541	275.412	284.795	291.742	222.700	247.194	129.689	123.697	156.881	129.020	107.940	105.935	104.574	142.294	134.320	127.039	196.153	170.489	37.397
70.000	290.262	296.612	263.571	290.023	310.888	313.276	314.732	275.317	284.508	292.386	222.390	245.738	129.092	122.790	156.045	128.830	107.892	105.839	104.502	142.294	134.368	126.824	195.914	172.160	38.390
71.000	291.694	297.209	263.858	290.142	311.175	313.371	315.090	275.651	284.651	292.936	222.318	244.305	128.471	122.288	155.281	128.758	107.940	105.983	104.622	142.270	134.344	126.562	196.033	174.046	42.586
72.000	292.267	297.973	264.765	290.238	311.008	313.467	314.780	275.627	284.819	292.673	222.437	242.181	127.636	121.691	154.732	128.591	107.797	105.648	104.502	142.103	134.392	126.371	195.771	175.550	43.939
73.000	292.864	298.164	265.147	290.286	311.175	313.324	315.305	275.985	284.842	293.246	222.437	240.700	127.087	121.238	154.016	128.424	107.773	105.768	104.550	142.246	134.297	125.941	195.818	177.364	41.367
74.000	292.983	298.832	266.078	290.477	310.888	313.156	314.660	275.603	284.556	293.580	222.390	238.934	126.466	120.617	153.300	128.233	107.558	105.720	104.479	142.008	134.440	125.845	195.890	178.916	39.021
75.000	293.914	299.310	266.245	290.524	311.390	313.395	315.042	276.105	284.914	293.556	222.604	237.692	125.941	120.259	152.846	128.257	107.630	105.529	104.479	141.841	134.320	125.487	195.842	180.348	38.480
76.000	294.296	300.121	267.128	290.978	311.175	313.538	314.995	275.842	284.484	293.819	222.461	236.427	125.320	119.805	152.440	128.137	107.582	105.481	104.335	141.817	134.440	125.272	195.914	181.805	40.826
77.000	294.511	299.931	267.582	290.739	311.318	313.801	314.923	276.105	284.771	293.914	222.246	235.329	124.986	119.471	151.748	128.113	107.511	105.553	104.359	141.864	134.344	124.914	195.866	183.165	43.127
78.000	295.084	300.551	267.916	291.050	311.342	313.562	314.804	276.129	284.771	294.463	222.485	233.920	124.556	119.185	151.366	127.946	107.534	105.457	104.431	141.793	134.320	124.747	195.795	184.431	41.954
79.000	295.872	300.814	268.227	291.002	311.605	313.634	315.162	276.296	284.795	294.296	222.413	232.536	124.174	118.994	150.960	127.636	107.296	105.434	104.431	141.650	134.320	124.604	195.866	185.744	39.698
80.000	295.466	300.957	269.086	291.408	311.628	313.491	314.947	275.890	284.508	294.631	222.700	231.533	123.888	118.683	150.674	127.707	107.320	105.386	104.240	141.626	134.320	124.604	195.842	186.842	39.157
81.000	296.564	301.053	268.776	291.121	311.557	313.634	315.233	276.296	284.628	294.822	222.461	230.626	123.434	118.421	150.148	127.660	107.320	105.481	104.240	141.554	134.297	124.413	195.842	187.606	39.202
82.000	296.445	301.339	269.444	291.432	311.605	313.562	315.162	276.606	284.866	295.013	222.676	230.005	123.100	118.349	149.838	127.684	107.296	105.266	104.240	141.459	134.368	124.508	195.651	188.656	41.728
83.000	296.946	301.673	269.516	291.623	311.581	313.538	315.019	276.439	284.580	294.893	222.342	229.122	122.766	118.086	149.552	127.302	107.272	105.386	104.383	141.554	134.392	124.126	195.747	189.587	41.999
84.000	297.400	301.482	270.208	291.384	311.390	313.658	315.233	276.845	284.866	295.060	222.819	227.833	122.575	117.728	149.194	127.397	107.343	105.410	104.288	141.411	134.273	123.912	195.818	190.590	40.465
85.000	297.113	301.554	270.638	291.217	311.366	313.753	314.732	276.272	284.795	295.609	222.676	227.069	122.097	117.585	149.098	127.373	107.224	105.457	104.311	141.459	134.416	123.721	195.651	191.330	39.292
86.000	297.567	302.151	270.853	291.408	311.533	313.610	315.281	276.344	284.771	295.657	222.461	226.424	122.026	117.513	148.764	127.278	107.176	105.410	104.383	141.411	134.249	123.601	195.580	192.094	39.247
87.000	297.710	302.103	270.733	291.718	311.557	313.849	314.899	276.367	284.723	295.633	222.748	225.971	121.596	117.227	148.453	127.039	107.343	105.338	104.168	141.339	134.392	123.482	195.604	192.763	40.510
88.000	298.092	302.724	271.163	291.551	311.772	313.753	315.019	276.702	285.010	295.514	222.676	225.636	121.453	117.251	148.310	127.206	107.296	105.410	104.288	141.339	134.249	123.267	195.604	193.359	41.593
89.000	298.498	302.222	271.306	291.718	311.963	313.729	315.353	276.582	284.580	296.015	222.413	225.302	121.238	117.227	148.191	127.087	107.081	105.338	104.288	141.244	134.368	123.219	195.651	193.932	41.097
