-----------------------------------------------------
BloodHound 307 VOC Analyser V2017.1
RoboScientific Ltd 
Espace North
Wisbech Road
Littleport
Cambridgeshire, UK
CB6 1RA 
-----------------------------------------------------
Date = 24/03/2022
Time = 12:04:32
Data is protected by RoboScientific Limited
-----------------------------------------------------
Name of the experiment = "50a_Day 27"
-----------------------------------------------------
Repeat No. = 2/4
-----------------------------------------------------
Experimental Time (in sec) and Flow Profile :
-----------------------------------------------------
Baseline = 2.00
Absorb = 4.00
Pause = 1.00
Desorb = 5.00
Flush = 20.00
Wait = 5.00
Higher Flow (V) = 4.00
Medium Flow (V) = 3.00
Low Flow (V) = 1.00
-----------------------------------------------------
Total Profile Time = 37 in sec
-----------------------------------------------------
Acquired data point per second = 4
--------------------------------------------------
Total data point stored  = 128
-----------------------------------------------------
Acquired sensor responses from 24 sensors
-----------------------------------------------------

Data Points	 Sen-1	 Sen-2	 Sen-3	 Sen-4	 Sen-5	 Sen-6	 Sen-7	 Sen-8	 Sen-9	 Sen-10	 Sen-11	 Sen-12	 Sen-13	 Sen-14	 Sen-15	 Sen-16	 Sen-17	 Sen-18	 Sen-19	 Sen-20	 Sen-21	 Sen-22	 Sen-23	 Sen-24	Humidity (%r.h.)
0.000	305.851	306.352	278.946	293.389	312.392	314.016	315.138	277.633	284.651	301.482	223.058	228.597	113.360	113.001	140.790	125.344	106.436	104.741	104.001	140.169	134.129	117.132	195.460	191.044	39.202
1.000	306.257	306.329	278.803	293.795	312.416	313.920	315.066	277.943	284.890	301.984	222.891	228.477	113.288	113.073	140.718	125.392	106.317	104.932	104.097	140.313	134.201	117.227	195.532	191.091	39.157
2.000	306.400	306.305	278.683	293.389	312.774	314.040	315.377	277.633	284.723	301.769	222.700	228.334	113.360	112.954	140.838	125.368	106.365	104.956	104.073	140.241	134.153	117.108	195.484	190.996	40.555
3.000	306.400	306.687	278.468	293.891	312.727	314.326	315.377	277.752	284.532	301.912	222.915	228.525	113.336	113.001	140.695	125.344	106.365	104.861	103.882	140.265	134.106	117.060	195.508	190.757	41.999
4.000	305.970	306.329	278.635	293.532	312.249	313.920	315.162	277.657	285.224	301.984	222.604	228.406	113.312	112.954	140.623	125.296	106.293	104.932	104.097	140.337	134.249	116.917	195.389	190.590	41.367
5.000	306.424	306.376	278.874	293.222	312.201	314.064	315.568	277.848	284.986	302.342	223.010	228.740	113.169	112.954	140.408	125.344	106.460	104.956	104.168	140.217	134.225	116.797	195.580	190.447	39.518
6.000	306.114	306.830	279.041	293.413	312.416	313.992	315.424	277.919	284.914	302.175	222.915	229.289	113.145	112.763	140.408	125.368	106.436	104.980	104.001	140.265	134.225	116.845	195.532	190.089	39.247
7.000	306.543	306.902	279.590	293.198	312.106	313.992	315.114	277.728	284.771	302.294	222.676	229.217	113.145	112.787	140.360	125.320	106.436	104.932	103.953	140.193	134.201	116.869	195.365	189.874	39.472
8.000	306.591	306.329	279.041	293.509	312.392	314.159	315.544	277.871	284.938	302.246	222.772	229.408	113.121	112.810	140.098	125.153	106.460	105.004	104.025	140.193	134.153	116.797	195.508	189.850	41.774
9.000	306.878	306.520	278.850	293.318	312.512	314.302	315.639	277.657	284.532	301.936	222.724	229.432	113.025	112.834	140.169	125.153	106.221	104.765	104.025	140.193	134.225	116.630	195.484	189.731	42.089
10.000	304.968	305.207	278.540	293.341	312.583	314.326	315.305	277.561	285.344	301.291	222.342	253.783	115.055	113.837	140.265	125.177	106.317	104.980	103.953	140.050	133.986	117.561	195.890	166.741	40.239
11.000	275.365	286.132	276.535	292.363	312.106	313.371	314.804	277.442	285.988	289.140	220.575	286.633	146.114	134.535	142.748	126.514	106.723	105.314	104.240	140.766	133.174	131.241	197.633	130.548	44.842
12.000	232.202	240.199	270.542	289.331	311.103	312.870	314.780	275.150	286.036	259.179	219.429	301.745	186.174	177.555	148.716	129.283	107.511	106.078	104.264	142.390	132.792	159.650	199.089	115.150	47.233
13.000	244.592	257.197	261.327	283.673	310.196	312.106	314.469	272.190	286.370	236.093	218.116	309.838	173.903	161.035	157.454	134.607	108.489	106.938	104.574	145.398	132.697	182.736	200.163	107.988	38.525
14.000	267.725	280.760	252.422	275.866	309.170	310.721	314.087	268.704	285.654	220.145	217.639	315.448	152.321	138.594	167.290	142.891	109.683	107.845	105.028	148.979	132.864	199.113	201.047	103.333	29.952
15.000	285.750	296.636	244.114	266.818	307.427	309.862	313.538	264.669	284.938	233.658	216.899	318.218	133.365	123.195	176.505	152.297	111.139	109.062	105.457	153.133	133.771	185.362	201.644	99.799	35.186
16.000	298.952	306.138	237.883	257.484	305.445	308.095	312.822	259.871	284.699	247.361	216.732	320.939	120.092	112.810	183.619	161.274	113.121	110.590	105.935	157.645	134.201	171.563	202.527	98.033	48.180
17.000	309.122	312.488	235.997	249.629	303.703	306.185	312.130	255.048	283.744	258.797	215.681	322.801	110.304	105.935	186.197	168.865	114.840	112.309	106.532	162.539	135.132	159.077	202.718	96.624	52.828
18.000	315.973	317.716	237.501	242.754	301.817	304.395	311.509	249.558	283.124	269.420	215.466	324.520	103.739	101.136	182.425	175.980	117.203	114.553	107.391	168.101	135.992	147.976	203.315	95.478	42.450
19.000	320.820	321.584	240.486	235.997	299.429	302.007	310.315	243.685	281.834	279.614	215.251	324.854	98.415	98.104	176.147	182.712	119.399	116.750	108.513	174.046	137.042	138.498	203.339	94.667	29.907
20.000	324.114	323.923	244.234	229.934	297.018	299.143	309.289	238.051	280.856	287.827	215.228	326.120	95.454	95.049	171.205	189.325	122.002	119.829	109.611	180.396	137.949	131.026	203.649	93.568	30.990
21.000	326.860	325.594	247.672	223.297	294.368	295.968	308.143	231.843	279.734	293.771	214.893	326.382	92.900	93.258	166.335	195.938	124.795	122.861	111.068	186.890	139.095	124.628	204.007	93.377	43.488
22.000	328.459	326.764	251.181	217.448	291.026	292.005	306.591	225.565	278.803	298.283	214.798	326.358	90.799	91.993	161.345	200.927	127.970	126.585	112.548	192.739	140.169	119.901	203.959	93.664	53.505
23.000	329.534	328.841	254.762	219.763	287.707	287.994	304.777	220.169	277.298	302.366	214.583	328.101	89.200	90.584	157.430	198.707	130.716	130.357	114.171	198.134	141.244	115.842	203.864	92.041	47.684
24.000	331.658	329.056	257.460	225.469	284.246	283.649	302.771	218.259	276.200	304.968	215.108	328.388	88.006	89.796	153.658	192.930	134.225	134.583	116.344	200.474	142.724	113.169	204.174	92.303	34.103
25.000	332.040	329.486	259.799	230.220	280.498	279.328	300.503	220.408	275.603	307.952	214.965	328.555	87.576	89.367	151.294	188.943	138.236	138.832	118.421	197.872	143.822	111.187	203.959	92.375	28.283
26.000	331.252	330.799	261.136	230.459	279.447	277.824	298.904	220.695	274.649	307.618	215.108	328.435	87.266	89.391	149.719	188.800	140.050	140.933	119.734	197.991	144.228	111.187	204.174	92.303	38.344
27.000	331.300	330.083	261.423	229.193	279.734	278.301	299.023	220.527	274.577	307.188	215.037	328.292	87.743	89.009	149.552	189.850	139.692	140.862	120.283	198.564	144.276	111.521	204.007	91.420	52.016
28.000	332.637	330.154	261.805	228.239	279.853	278.230	298.832	219.620	274.816	307.140	215.060	328.053	88.101	88.770	149.098	190.996	139.262	140.504	120.331	198.850	143.965	111.808	203.959	91.873	51.564
29.000	331.754	330.727	261.900	227.045	280.450	278.635	298.641	219.883	274.935	306.543	214.893	328.603	87.457	88.388	149.456	191.903	138.928	140.551	120.569	199.113	143.965	112.094	204.102	92.064	38.705
30.000	332.303	331.252	263.165	230.769	278.588	276.272	297.710	221.769	274.434	307.642	214.941	328.841	86.908	88.770	148.835	188.203	140.098	142.127	121.667	196.439	144.395	110.566	204.055	92.685	28.509
31.000	331.348	330.751	264.431	235.066	275.269	273.240	295.729	222.772	273.717	308.501	214.965	328.221	87.361	88.292	146.806	183.834	143.894	145.350	123.530	195.245	145.254	109.802	203.911	92.446	33.833
32.000	330.154	331.420	265.839	236.618	273.192	271.378	294.392	221.267	274.744	304.944	215.180	328.125	88.913	88.865	145.875	181.757	146.400	147.499	124.795	196.940	144.061	113.670	203.983	93.616	47.639
33.000	328.698	330.250	266.341	236.451	274.052	272.476	294.750	220.838	276.200	298.617	215.299	326.048	90.847	89.223	144.968	182.664	145.684	146.544	124.341	198.158	142.437	119.686	203.291	94.118	53.550
34.000	326.621	328.937	266.651	233.658	275.771	274.243	296.015	226.758	277.848	290.739	215.538	324.425	93.521	90.513	145.040	185.362	143.177	144.228	123.362	191.617	140.933	129.068	202.718	96.004	43.894
35.000	323.422	327.839	265.935	229.695	278.373	276.678	296.922	232.918	279.781	280.378	216.899	322.204	96.696	91.850	145.756	189.683	140.575	141.912	122.002	184.264	139.119	139.573	201.906	97.961	31.261
36.000	319.173	326.096	265.147	223.535	280.856	279.161	298.474	239.173	281.118	267.272	217.376	320.151	100.348	93.449	146.663	195.054	137.663	139.262	120.402	177.889	137.567	151.533	201.333	99.346	30.313
37.000	314.780	323.923	263.953	218.474	284.055	282.145	300.098	244.807	281.978	253.258	217.901	317.573	104.407	95.502	147.642	200.235	134.774	136.445	119.137	172.208	136.732	165.642	200.832	102.497	41.728
38.000	309.671	321.154	262.401	219.501	286.633	284.771	301.721	249.152	282.765	238.409	218.331	314.398	109.874	97.770	149.695	199.638	132.148	133.843	117.657	168.006	136.063	180.086	200.044	104.789	52.016
39.000	303.273	318.647	260.539	226.305	289.164	287.492	303.058	252.613	283.697	225.350	218.761	311.342	116.678	100.874	151.724	192.524	129.689	131.384	116.200	163.971	135.395	193.813	199.853	107.678	47.549
40.000	293.652	315.186	258.558	233.252	291.551	290.023	304.275	255.454	283.911	220.456	219.453	308.716	125.845	104.383	154.398	185.219	127.134	128.686	114.935	160.677	134.941	198.850	199.256	110.399	36.314
41.000	282.049	310.817	255.645	240.509	293.676	292.148	305.278	258.009	284.150	230.888	219.572	305.756	137.639	108.274	157.239	178.391	125.177	126.562	113.694	158.170	134.822	188.155	198.970	112.930	30.449
42.000	268.394	306.448	253.401	247.027	295.633	294.583	306.830	260.157	284.413	240.533	219.907	302.986	150.698	112.596	160.390	171.515	123.124	124.294	112.452	155.950	134.535	178.415	198.803	115.222	36.630
43.000	254.165	300.838	250.369	252.661	297.400	296.731	307.689	262.234	284.842	248.794	220.217	300.289	164.974	118.063	164.186	166.024	121.309	122.240	111.402	154.231	134.583	170.727	198.468	118.397	47.549
44.000	240.438	294.869	247.266	258.271	298.737	298.570	308.501	263.571	284.604	255.550	220.122	296.827	178.773	124.580	167.982	160.701	119.686	120.044	110.495	152.607	134.392	163.709	198.110	121.262	49.534
45.000	229.743	286.060	244.043	262.569	300.790	300.933	309.599	265.242	284.580	261.279	220.480	294.511	190.375	133.509	171.849	156.165	118.421	118.373	109.659	151.581	134.273	157.955	197.991	124.079	41.322
46.000	221.435	275.269	240.533	266.150	301.697	302.151	310.101	266.460	284.866	265.362	220.933	291.551	198.397	144.276	176.242	152.488	117.179	116.678	108.895	150.316	134.273	153.515	197.895	126.442	33.066
47.000	222.413	263.213	237.454	269.014	302.843	303.822	310.697	267.510	284.651	269.301	220.742	289.498	197.346	155.735	180.253	148.931	115.818	115.031	108.322	149.385	134.368	149.767	197.561	128.519	33.472
48.000	229.814	249.605	234.828	272.309	303.893	305.016	311.390	268.274	284.604	272.763	221.291	287.039	189.516	169.128	183.500	146.066	114.959	113.861	107.678	148.525	134.297	145.995	197.466	131.121	41.097
49.000	238.695	234.995	233.228	274.887	304.634	306.639	312.106	269.635	284.699	275.962	221.124	284.055	181.423	183.547	186.460	143.870	114.004	112.596	107.224	147.594	134.249	143.058	197.108	133.246	47.910
50.000	245.953	222.509	232.488	277.442	305.445	307.498	311.915	269.945	284.628	279.184	221.602	281.094	173.735	196.511	188.489	141.172	113.097	111.330	106.866	147.093	134.297	140.169	197.012	136.254	45.925
51.000	251.826	227.833	233.658	279.495	306.376	308.406	312.560	270.590	284.675	280.545	221.793	278.874	168.030	191.736	187.773	139.119	112.476	110.256	106.436	146.353	134.297	138.379	196.940	139.071	40.149
52.000	255.908	237.263	235.329	280.903	306.663	309.432	313.156	271.306	284.819	281.906	221.602	277.203	163.374	181.614	185.624	137.710	111.951	109.540	106.174	145.923	134.320	136.970	196.964	140.766	34.239
53.000	260.038	247.146	237.478	281.906	307.236	310.029	313.180	271.831	284.866	283.482	221.578	275.794	159.292	171.730	183.022	136.469	111.259	108.824	106.150	145.445	134.368	135.920	196.893	142.246	35.322
54.000	264.980	256.505	240.008	283.386	308.095	310.841	313.729	272.333	284.461	284.508	221.458	273.383	154.589	162.825	180.181	135.514	110.781	108.251	105.887	145.302	134.392	134.631	196.773	143.941	41.909
55.000	268.513	264.789	242.730	284.079	308.000	310.912	313.514	272.548	284.866	286.012	221.458	271.640	151.008	155.019	177.484	134.511	110.447	107.892	105.505	144.825	134.440	133.556	196.702	146.138	46.646
56.000	272.906	270.829	244.854	285.272	308.692	311.700	314.111	272.882	284.628	286.896	221.840	269.205	147.164	148.597	174.619	133.747	110.065	107.511	105.577	144.490	134.297	132.291	196.749	148.382	43.804
57.000	275.532	275.938	247.313	286.251	309.432	311.724	314.255	273.598	284.699	287.469	222.079	266.890	144.347	143.464	172.064	133.174	109.755	107.248	105.266	144.180	134.368	131.336	196.702	150.674	38.254
58.000	277.943	280.211	249.629	286.538	309.528	311.748	314.040	273.455	284.437	288.447	222.055	264.383	141.864	138.904	169.772	132.315	109.444	106.961	105.099	144.037	134.440	130.477	196.535	153.228	35.096
59.000	280.116	283.434	251.539	287.039	309.910	312.583	314.398	274.171	284.604	289.164	221.817	262.139	139.644	135.848	167.767	131.766	109.182	106.675	105.099	143.727	134.559	129.784	196.582	155.114	38.886
60.000	282.216	286.394	253.473	287.803	309.981	312.536	314.207	274.171	284.604	289.856	222.031	259.775	137.710	133.174	165.929	131.169	109.015	106.556	104.813	143.536	134.583	129.331	196.439	157.716	44.797
61.000	283.601	288.877	255.311	287.898	309.910	312.416	314.398	274.458	284.675	290.763	222.151	257.269	136.326	131.074	163.995	130.763	108.800	106.412	104.956	143.345	134.368	128.710	196.415	160.271	44.390
62.000	285.463	290.500	256.743	288.853	310.697	312.846	314.708	275.054	284.866	291.193	222.294	254.666	134.631	129.068	162.276	130.334	108.633	106.365	104.837	143.106	134.464	128.209	196.367	162.873	40.375
63.000	286.370	292.005	258.247	288.925	310.697	312.679	314.278	274.744	284.747	291.718	222.461	252.398	133.485	127.325	160.844	130.119	108.537	106.197	104.598	142.939	134.320	127.540	196.272	165.738	36.810
64.000	287.254	293.413	259.608	289.402	310.841	312.727	314.374	274.792	284.675	291.933	222.222	249.510	132.196	126.108	159.483	129.880	108.298	106.006	104.693	142.939	134.535	127.134	196.248	167.863	37.938
65.000	288.113	294.798	261.017	289.378	310.459	312.918	314.613	274.840	284.604	292.458	222.222	247.695	131.432	125.057	158.385	129.593	108.251	105.959	104.598	142.795	134.344	126.920	196.153	170.131	42.495
66.000	289.235	295.609	262.282	290.095	310.888	313.085	314.589	275.102	284.699	292.458	222.485	245.499	130.453	124.246	157.382	129.164	108.036	105.983	104.598	142.581	134.392	126.538	196.272	172.231	44.255
67.000	290.119	296.039	262.831	290.023	311.199	313.228	314.637	275.126	284.699	292.912	222.413	243.350	129.379	123.410	156.308	128.830	107.988	105.768	104.550	142.509	134.440	126.418	196.057	174.499	41.638
68.000	290.620	296.731	263.810	289.951	310.936	313.061	314.660	275.389	284.580	293.198	222.270	241.202	128.734	122.527	155.472	128.734	107.940	105.887	104.502	142.413	134.368	126.203	196.033	176.457	38.841
69.000	292.196	297.686	264.717	290.286	311.270	313.156	315.090	275.436	284.699	293.246	222.390	238.886	127.946	121.811	154.493	128.686	107.797	105.815	104.455	142.246	134.392	125.630	196.033	178.988	38.299
70.000	292.745	298.259	265.672	290.357	310.936	313.491	315.042	275.532	284.938	293.747	222.390	236.976	127.230	121.095	153.682	128.495	107.845	105.744	104.502	142.199	134.344	125.463	196.081	181.088	40.646
71.000	293.174	299.047	266.532	290.286	311.270	313.514	314.804	275.771	284.461	293.819	222.461	234.708	126.490	120.498	153.037	128.352	107.630	105.672	104.526	142.175	134.488	125.081	195.890	183.237	43.082
72.000	293.532	299.525	267.296	290.477	311.151	313.347	314.684	275.771	284.675	294.726	222.437	232.894	125.702	119.901	152.106	127.970	107.487	105.529	104.502	142.127	134.416	124.652	195.938	185.219	42.044
73.000	294.750	300.456	267.701	290.882	311.533	313.586	314.971	275.723	284.580	294.511	222.485	231.223	124.819	119.280	151.557	127.922	107.439	105.601	104.311	142.079	134.511	124.246	195.938	187.415	39.472
74.000	295.538	300.766	268.537	290.906	311.294	313.324	314.971	275.890	284.484	295.108	222.461	228.788	124.103	118.659	150.674	127.946	107.439	105.410	104.288	141.936	134.416	123.768	195.795	189.659	39.202
75.000	296.421	301.363	269.874	291.193	311.390	313.658	314.732	276.105	284.771	295.418	222.676	226.997	123.219	118.039	149.790	127.516	107.415	105.386	104.407	141.817	134.392	123.410	195.723	191.832	39.563
76.000	297.233	301.960	270.089	291.479	311.533	313.777	315.019	276.033	284.317	295.777	222.867	225.039	122.599	117.561	149.122	127.325	107.320	105.386	104.359	141.817	134.511	123.028	195.771	193.909	41.277
77.000	297.615	302.246	271.068	291.527	311.796	313.682	315.233	276.272	284.365	295.991	222.652	223.130	121.906	116.964	148.191	127.134	107.200	105.266	104.240	141.673	134.535	122.718	195.675	195.699	41.142
78.000	298.164	303.106	271.640	292.172	312.082	313.896	314.947	276.153	284.365	296.755	222.915	222.175	121.285	116.606	147.379	127.206	107.224	105.195	104.144	141.673	134.440	122.288	195.580	197.203	40.375
79.000	298.546	303.488	272.357	291.933	311.819	313.658	314.899	276.224	284.389	297.042	222.700	221.458	120.856	116.057	146.711	126.776	107.057	105.171	104.335	141.697	134.392	121.978	195.627	198.230	39.608
80.000	299.453	303.535	273.312	292.530	312.082	314.064	315.019	276.678	284.365	297.042	223.010	220.957	120.211	115.890	146.090	126.753	106.914	105.338	104.335	141.554	134.583	121.644	195.604	198.922	39.879
81.000	299.907	303.893	273.813	292.172	312.130	313.849	315.472	276.224	284.437	297.281	222.724	221.029	119.949	115.604	145.398	126.657	106.961	105.171	104.240	141.578	134.559	121.476	195.580	198.970	40.104
82.000	299.238	304.252	274.577	292.172	311.676	313.801	315.162	276.176	284.532	297.543	222.724	220.981	119.829	115.413	145.040	126.490	107.057	105.171	104.168	141.363	134.559	121.357	195.508	199.017	40.149
83.000	300.026	304.037	274.481	292.482	312.225	314.087	315.233	276.797	284.675	297.949	222.986	221.220	119.614	115.532	144.729	126.538	106.938	105.004	104.144	141.506	134.488	121.190	195.580	199.041	40.239
84.000	300.360	304.228	274.863	292.410	312.225	313.992	315.138	276.439	284.628	298.188	222.676	221.578	119.376	115.102	144.252	126.418	106.794	105.243	104.216	141.459	134.511	120.856	195.604	198.874	40.691
85.000	300.647	304.132	275.293	292.196	311.939	313.944	315.281	276.845	284.914	298.283	222.748	221.220	119.113	115.102	144.037	126.442	106.747	105.028	104.120	141.363	134.511	120.880	195.484	198.803	40.330
86.000	300.575	304.347	275.651	292.649	312.225	313.777	315.233	276.606	284.270	298.068	222.939	221.267	119.113	115.126	143.774	126.299	106.842	105.195	104.097	141.291	134.464	120.736	195.484	198.683	40.014
87.000	300.527	304.777	275.914	292.649	311.843	313.729	315.042	276.964	284.795	298.164	222.867	221.291	119.137	115.078	143.631	126.251	106.723	105.123	104.240	141.220	134.583	120.832	195.508	198.803	39.608
88.000	300.360	304.347	275.818	292.410	311.796	313.610	315.210	277.155	284.747	298.116	222.724	221.458	119.089	115.126	143.440	126.251	106.890	105.123	104.168	141.172	134.416	120.689	195.556	198.755	40.059
89.000	300.647	304.084	275.484	292.410	312.010	313.896	315.257	276.749	284.795	298.188	222.700	221.315	118.994	115.102	143.559	126.371	106.818	105.028	104.144	141.268	134.488	120.832	195.556	198.874	40.420
