-----------------------------------------------------
BloodHound 307 VOC Analyser V2017.1
RoboScientific Ltd 
Espace North
Wisbech Road
Littleport
Cambridgeshire, UK
CB6 1RA 
-----------------------------------------------------
Date = 24/03/2022
Time = 12:36:48
Data is protected by RoboScientific Limited
-----------------------------------------------------
Name of the experiment = "50a_Day 38"
-----------------------------------------------------
Repeat No. = 2/4
-----------------------------------------------------
Experimental Time (in sec) and Flow Profile :
-----------------------------------------------------
Baseline = 2.00
Absorb = 4.00
Pause = 1.00
Desorb = 5.00
Flush = 20.00
Wait = 5.00
Higher Flow (V) = 4.00
Medium Flow (V) = 3.00
Low Flow (V) = 1.00
-----------------------------------------------------
Total Profile Time = 37 in sec
-----------------------------------------------------
Acquired data point per second = 4
--------------------------------------------------
Total data point stored  = 128
-----------------------------------------------------
Acquired sensor responses from 24 sensors
-----------------------------------------------------

Data Points	 Sen-1	 Sen-2	 Sen-3	 Sen-4	 Sen-5	 Sen-6	 Sen-7	 Sen-8	 Sen-9	 Sen-10	 Sen-11	 Sen-12	 Sen-13	 Sen-14	 Sen-15	 Sen-16	 Sen-17	 Sen-18	 Sen-19	 Sen-20	 Sen-21	 Sen-22	 Sen-23	 Sen-24	Humidity (%r.h.)
0.000	303.893	305.469	270.733	293.222	312.010	313.920	315.353	277.991	285.057	299.501	223.440	220.122	115.580	114.362	148.692	125.893	106.866	104.908	104.097	140.050	133.986	119.376	194.935	199.686	40.104
1.000	303.989	305.374	270.924	292.888	312.225	314.302	315.114	277.680	284.866	299.549	223.535	220.241	115.484	114.028	148.453	125.965	106.747	105.004	104.168	140.098	133.819	119.209	194.863	199.423	40.285
2.000	304.156	305.087	270.924	292.936	312.249	314.302	315.042	277.991	284.890	299.668	223.535	220.909	115.436	113.885	148.286	125.893	106.866	104.932	104.073	140.050	134.082	119.089	194.887	199.423	40.555
3.000	304.156	305.493	271.378	292.959	312.106	314.159	315.281	277.776	284.723	299.716	223.177	220.623	115.484	113.741	148.000	125.893	106.747	104.932	104.073	140.002	133.986	118.970	194.887	199.113	40.510
4.000	303.870	305.923	271.473	293.198	311.939	314.087	315.186	277.657	285.010	299.859	223.488	221.220	115.102	113.765	147.785	125.798	106.723	104.837	104.097	139.931	134.010	118.731	194.863	198.779	39.833
5.000	304.610	305.899	271.473	293.127	311.987	313.825	315.138	278.110	285.272	300.289	223.559	221.649	114.864	113.646	147.499	125.750	106.890	104.908	104.001	140.050	134.082	118.659	194.768	198.373	39.563
6.000	304.490	306.066	272.022	293.127	311.939	314.040	315.257	277.824	284.962	300.599	223.559	222.079	114.983	113.503	147.403	125.583	106.723	104.837	104.120	139.931	134.129	118.731	194.649	197.991	39.924
7.000	304.681	305.421	272.309	293.174	312.058	314.111	315.305	278.182	285.535	300.599	223.440	222.008	114.720	113.503	147.069	125.583	106.699	104.932	104.001	139.978	134.058	118.492	194.816	197.800	40.781
8.000	304.347	305.923	272.643	293.604	312.345	314.111	315.019	277.704	284.866	300.527	223.655	221.984	114.720	113.646	147.045	125.559	106.603	104.813	104.097	140.050	134.010	118.397	194.887	197.776	41.052
9.000	304.657	306.209	272.739	293.270	312.225	314.111	315.114	277.824	285.057	300.742	223.631	222.103	114.529	113.670	146.806	125.654	106.675	104.932	104.168	139.978	134.106	118.301	194.816	197.728	40.104
10.000	302.962	305.087	272.285	293.198	312.273	313.992	315.162	277.848	285.081	299.787	223.512	253.139	116.081	114.505	147.021	125.750	106.699	104.813	104.001	139.859	133.867	119.209	194.911	164.640	39.518
11.000	273.264	287.445	270.089	292.148	311.963	314.064	314.923	277.298	285.535	286.036	221.506	289.068	143.368	130.381	149.026	126.705	107.176	105.314	104.359	140.337	133.198	131.599	196.797	128.734	43.939
12.000	227.546	243.255	262.903	288.805	310.506	312.655	314.780	275.842	286.681	251.921	220.432	304.657	190.017	173.926	155.448	129.498	107.821	105.983	104.288	141.769	132.649	165.762	198.158	114.123	39.608
13.000	249.080	254.332	253.783	283.720	309.910	312.058	314.541	272.667	286.347	228.430	219.214	313.156	171.062	165.905	164.950	134.655	108.824	106.770	104.908	144.992	132.602	190.877	199.185	106.699	30.719
14.000	272.261	279.208	244.329	276.320	308.716	311.247	314.278	269.182	286.275	227.928	218.188	317.549	149.313	140.217	175.789	142.604	110.113	107.869	104.956	148.286	133.031	191.211	200.068	101.829	34.013
15.000	289.116	295.586	236.260	266.484	306.639	309.504	313.371	265.123	285.774	241.966	217.830	320.366	131.288	123.673	185.577	152.321	111.736	108.991	105.625	152.273	133.461	176.576	200.665	99.059	45.970
16.000	300.527	305.756	233.156	257.125	305.039	308.310	312.918	260.515	284.866	253.210	217.376	322.945	117.872	112.715	188.847	161.512	113.503	110.471	106.293	156.881	134.225	164.186	201.333	96.433	52.963
17.000	309.384	313.228	235.042	248.794	303.082	306.496	312.154	255.979	283.768	263.858	216.923	323.828	108.465	106.269	183.810	169.390	115.293	112.166	107.033	161.632	135.108	153.515	201.930	94.738	45.338
18.000	316.308	318.313	239.650	241.799	300.599	304.204	311.056	250.345	282.575	273.646	216.278	326.024	102.593	101.494	176.839	177.078	117.728	114.529	107.869	167.385	135.896	144.156	202.384	94.022	32.028
19.000	321.106	321.345	244.138	235.329	298.546	302.151	310.220	245.165	281.906	282.789	216.350	327.003	97.937	97.937	170.441	183.906	120.307	116.654	108.776	173.162	136.827	135.729	202.455	92.494	29.005
20.000	325.403	324.353	248.841	229.098	295.848	299.262	309.265	238.719	280.951	289.498	215.872	328.006	94.404	94.786	164.449	190.041	122.670	119.495	109.922	179.059	137.925	128.853	202.503	92.446	39.563
21.000	327.266	326.263	252.589	222.294	293.509	296.182	307.618	232.774	279.925	294.607	215.848	327.934	92.184	92.900	159.316	196.439	125.559	122.646	111.545	185.553	138.832	123.315	202.789	91.491	52.331
22.000	328.722	327.433	256.003	217.424	290.023	292.219	306.042	226.615	279.017	299.119	216.039	329.128	90.393	91.468	154.995	201.453	128.471	125.941	112.834	191.259	139.883	118.827	202.909	91.205	51.113
23.000	330.154	328.794	259.584	220.265	286.466	288.400	304.132	221.387	278.039	302.700	215.968	329.510	89.319	90.369	151.342	198.468	131.933	129.999	114.935	197.084	141.077	115.413	203.076	91.014	38.570
24.000	331.969	329.080	263.356	226.114	283.195	284.246	302.366	218.785	276.630	305.947	215.824	329.677	88.316	89.391	148.048	192.834	135.371	133.938	117.394	200.736	142.461	112.572	203.148	90.799	28.509
25.000	331.634	330.083	265.815	230.650	279.161	280.211	299.740	220.074	275.030	308.429	215.872	329.701	87.027	88.818	145.732	188.251	139.573	138.164	119.423	198.659	143.536	110.638	203.004	89.892	33.111
26.000	331.873	330.918	266.770	230.387	277.537	278.635	298.259	219.978	275.078	308.167	215.514	330.465	87.290	89.009	144.132	188.203	141.196	140.002	120.808	198.516	144.132	110.471	203.339	89.964	47.098
27.000	331.587	331.181	267.296	229.241	278.062	278.874	298.068	219.883	274.959	307.498	215.896	330.250	87.385	88.340	144.395	189.325	141.100	139.787	120.951	198.970	144.037	111.450	203.362	90.990	54.362
28.000	332.589	330.345	267.105	228.692	278.086	278.898	297.639	219.787	275.198	307.451	215.944	330.298	86.836	88.436	143.894	190.208	140.456	139.764	121.357	199.161	143.941	111.569	203.267	90.680	45.699
29.000	331.921	330.823	267.630	227.260	278.492	278.946	297.567	219.453	275.866	307.427	216.111	330.274	87.027	88.006	144.562	191.450	140.575	139.692	121.500	199.280	143.583	111.808	203.004	90.942	31.802
30.000	333.282	331.109	268.036	231.127	277.442	277.704	296.540	221.220	274.935	308.310	216.063	330.918	86.621	87.337	143.607	188.083	141.339	141.196	122.384	197.251	143.918	109.683	202.957	90.751	28.599
31.000	332.661	331.085	269.993	235.544	273.956	274.099	294.654	222.533	273.885	308.859	215.657	330.966	87.051	88.627	142.103	183.309	144.849	144.276	124.437	195.651	145.063	109.850	203.243	90.895	39.247
32.000	331.205	331.181	271.354	237.406	271.163	272.190	293.676	221.578	274.458	305.684	215.824	329.008	88.054	88.221	140.718	181.327	147.809	146.591	125.845	196.487	144.180	112.381	202.957	91.587	52.106
33.000	328.937	330.703	271.235	237.525	271.378	272.739	293.413	220.098	276.057	301.673	215.968	327.815	90.059	89.319	139.883	181.518	147.761	146.018	125.607	198.898	142.986	118.063	202.479	91.587	51.610
34.000	327.528	330.226	271.808	235.305	272.667	274.267	294.296	225.016	277.919	293.700	216.684	325.976	92.255	90.226	139.692	183.428	145.971	144.371	124.699	193.097	141.029	125.821	201.858	94.237	39.066
35.000	324.114	328.077	271.306	231.509	275.221	276.606	295.705	231.438	279.543	283.362	217.591	324.592	94.714	91.181	140.647	187.678	143.249	142.079	123.291	186.197	139.286	135.992	201.190	94.499	28.689
36.000	322.037	326.717	270.638	226.663	278.206	279.423	297.328	237.907	280.712	271.187	218.427	321.799	98.271	92.494	141.435	192.046	140.313	139.405	121.811	179.513	137.949	147.021	200.402	97.173	33.336
37.000	317.215	325.785	269.778	220.360	281.118	281.548	298.403	243.064	282.240	257.221	218.403	319.507	101.471	93.927	142.939	198.039	137.328	136.588	120.331	173.831	136.946	160.820	199.686	100.157	46.150
38.000	312.464	323.040	268.155	217.328	284.293	284.651	300.169	247.934	282.670	243.398	219.358	316.618	107.725	95.932	144.634	201.715	134.464	134.225	118.898	169.080	136.254	175.550	199.089	102.664	52.602
39.000	306.329	320.700	266.173	223.368	286.681	287.373	302.007	251.754	283.482	230.316	219.453	314.135	113.789	98.964	146.281	195.460	131.838	131.360	117.513	165.046	135.466	189.635	198.826	105.481	45.293
40.000	298.808	317.788	264.335	229.934	289.092	289.307	302.867	254.690	284.007	217.925	219.763	311.652	121.166	101.900	149.170	188.585	129.116	129.116	116.057	161.703	135.180	201.644	198.397	108.203	33.652
41.000	288.853	314.350	261.900	237.239	291.551	291.861	304.108	257.030	284.007	225.445	220.336	308.238	130.501	104.407	151.867	181.232	127.015	126.872	114.696	159.053	134.535	193.001	198.253	110.853	30.449
42.000	276.606	310.984	258.534	244.043	293.819	293.771	305.708	259.226	284.461	235.162	220.480	306.663	142.175	108.131	154.995	174.476	124.867	124.508	113.527	156.833	134.488	183.452	197.872	113.455	38.390
43.000	264.192	306.997	255.693	249.629	295.418	295.800	306.711	261.184	284.389	243.064	220.408	303.297	154.589	112.428	158.194	168.889	123.219	122.670	112.214	155.043	134.249	175.932	197.728	115.604	49.038
44.000	253.067	302.055	252.184	255.025	297.090	297.901	307.856	262.974	284.795	250.369	220.933	300.933	167.194	117.442	162.276	163.780	121.476	120.760	111.378	153.276	134.297	169.176	197.442	118.158	49.083
45.000	241.990	295.872	249.104	259.871	298.761	299.811	308.668	264.669	284.532	255.884	221.005	298.617	178.200	123.315	166.000	159.006	119.829	119.018	110.304	151.891	134.153	163.351	197.179	120.808	39.879
46.000	232.751	288.973	245.093	263.452	299.859	301.076	309.456	266.030	284.914	260.659	221.578	295.991	187.343	130.572	170.369	155.305	118.468	117.203	109.707	150.793	134.058	158.433	197.179	123.315	31.983
47.000	224.347	280.068	241.870	266.460	301.076	302.557	310.005	266.818	284.675	264.789	221.435	294.034	194.649	138.809	174.165	151.629	117.418	115.914	108.895	149.767	134.153	153.873	197.036	125.201	34.509
48.000	220.480	268.967	238.337	269.468	302.079	303.941	310.554	267.821	284.795	268.823	221.530	291.455	199.161	149.504	178.033	148.788	116.296	114.720	108.465	148.907	134.106	150.101	196.845	127.707	44.300
49.000	227.618	256.314	235.305	272.595	303.201	305.421	311.533	268.943	285.033	271.999	221.888	289.211	192.285	162.515	181.948	146.066	115.413	113.336	107.916	148.072	134.129	147.069	196.439	129.808	49.128
50.000	236.809	242.419	232.607	275.508	304.466	307.021	311.748	269.516	284.461	275.747	221.793	286.705	183.142	177.340	185.839	143.273	114.314	111.903	107.296	147.379	134.177	143.416	196.558	132.243	43.939
51.000	244.759	227.642	230.817	277.394	304.896	308.191	312.536	270.614	284.747	278.683	221.984	283.888	174.404	191.736	189.205	140.886	113.503	110.662	106.985	146.591	134.082	140.217	196.367	135.251	36.224
52.000	251.945	224.777	230.745	279.495	305.970	308.907	312.727	271.211	284.747	281.118	222.246	280.641	167.194	194.577	190.590	138.976	112.787	109.802	106.484	146.162	134.177	137.639	196.224	137.973	33.381
53.000	257.675	236.570	231.485	281.500	306.854	309.766	312.918	271.712	284.938	282.837	222.246	278.086	161.632	182.736	189.205	137.233	112.023	108.871	106.317	145.613	134.129	135.848	196.105	140.623	39.112
54.000	261.423	246.597	234.064	282.598	307.379	310.578	313.109	272.261	285.057	284.437	222.795	275.556	158.552	173.186	187.033	136.063	111.474	108.418	105.935	145.087	134.153	134.750	195.795	142.963	46.376
55.000	264.096	254.762	236.451	283.720	307.809	311.032	313.419	272.763	284.962	285.129	222.748	274.290	155.639	165.069	184.455	135.156	111.187	107.964	105.815	144.634	134.082	134.010	196.009	144.085	46.150
56.000	266.221	261.685	238.074	284.174	308.477	311.390	313.825	273.144	285.010	285.917	222.533	273.359	153.395	157.883	182.091	134.320	110.805	107.582	105.672	144.490	134.201	133.437	195.842	145.207	40.510
57.000	268.943	267.415	240.557	284.986	308.525	311.438	313.705	273.073	284.675	286.347	222.724	271.879	150.411	151.462	180.134	133.676	110.328	107.343	105.457	144.132	134.082	132.912	195.771	146.305	34.780
58.000	271.712	273.192	241.918	285.511	308.549	311.819	313.705	273.670	285.010	287.278	222.700	270.447	147.713	146.209	178.009	132.960	110.017	107.033	105.290	143.822	134.153	132.172	195.818	147.881	35.818
59.000	273.885	276.869	243.565	286.442	308.979	312.369	314.231	274.147	284.914	287.469	222.628	268.871	145.636	142.485	176.051	132.506	109.874	106.866	105.171	143.536	134.058	131.503	195.651	149.504	42.405
60.000	275.842	279.781	245.213	286.585	309.432	312.201	313.777	274.076	284.819	288.042	222.485	267.582	144.180	139.716	174.476	132.124	109.588	106.579	105.099	143.368	134.153	131.145	195.675	150.745	46.376
61.000	277.107	282.360	247.003	287.087	309.408	312.321	314.207	274.434	284.795	288.400	222.963	266.412	142.342	137.352	172.757	131.694	109.373	106.532	105.147	143.154	134.129	130.835	195.675	151.581	43.262
62.000	278.755	284.461	247.886	287.206	309.766	312.607	314.111	274.267	284.938	288.686	222.915	265.123	140.790	134.941	171.491	131.312	109.182	106.293	105.004	142.915	134.153	130.334	195.604	153.228	38.164
63.000	280.426	285.821	249.438	287.660	309.695	312.488	314.326	274.911	285.081	289.522	222.748	263.476	139.358	133.294	170.011	130.978	109.086	106.269	104.980	142.915	134.106	129.928	195.604	154.875	35.322
64.000	281.429	287.660	250.393	288.065	309.814	312.631	314.231	275.221	285.272	289.856	222.724	261.900	138.236	131.575	168.794	130.548	108.943	106.197	104.908	142.867	134.129	129.593	195.675	156.021	38.841
65.000	282.049	288.996	251.754	288.304	310.220	312.727	314.231	275.198	285.033	289.737	222.604	261.065	137.161	130.501	167.600	130.405	108.895	105.983	104.813	142.628	134.225	129.379	195.556	157.048	44.706
66.000	283.482	290.142	252.661	289.211	310.292	313.228	314.565	275.102	284.675	289.951	222.819	259.489	136.302	129.474	166.908	130.238	108.609	105.983	104.789	142.533	134.225	129.283	195.556	158.337	44.797
67.000	284.508	291.169	253.544	288.614	310.220	313.133	314.637	275.341	285.081	290.548	222.581	259.083	135.395	128.495	166.096	130.119	108.585	105.959	104.693	142.390	134.201	128.997	195.651	159.411	40.961
68.000	285.392	292.076	254.356	288.758	310.411	313.085	314.637	275.365	284.819	290.381	223.034	257.484	134.392	127.612	165.046	129.832	108.465	105.959	104.741	142.342	134.201	128.591	195.484	160.724	36.495
69.000	286.394	292.673	255.048	288.973	310.387	313.228	314.613	275.818	285.033	291.073	222.748	255.765	133.198	126.633	164.401	129.689	108.465	105.887	104.741	142.175	134.106	128.304	195.580	162.372	37.126
70.000	287.254	293.843	255.717	289.450	310.315	312.965	314.613	275.794	285.010	291.217	222.748	254.786	132.625	125.869	163.446	129.379	108.370	105.744	104.789	142.294	134.058	128.113	195.532	163.995	42.089
71.000	287.230	294.320	256.815	289.378	310.506	313.109	314.565	275.532	284.675	291.288	222.963	253.306	132.172	125.320	162.801	129.283	108.298	105.648	104.741	142.151	134.249	127.922	195.436	165.069	44.661
72.000	287.994	295.132	257.245	289.928	310.578	313.156	314.493	275.651	284.890	291.336	222.748	252.160	131.503	124.652	162.252	129.020	107.988	105.720	104.550	141.864	134.106	127.946	195.389	166.120	42.766
73.000	288.853	295.227	257.675	290.071	310.888	313.300	314.732	275.627	284.866	291.264	223.106	251.324	130.763	124.317	161.799	128.877	108.155	105.625	104.598	141.912	134.106	127.636	195.556	166.884	39.112
74.000	289.044	296.182	258.128	290.238	310.865	313.037	314.660	275.866	284.962	291.623	222.819	249.892	129.904	123.721	161.035	128.901	108.083	105.648	104.622	141.936	134.129	127.206	195.532	168.364	36.946
75.000	290.500	296.230	258.653	289.951	311.247	313.610	314.923	275.985	284.842	291.933	223.010	248.746	129.402	123.100	160.629	128.591	107.988	105.529	104.598	141.769	134.129	127.039	195.508	169.605	39.157
76.000	290.978	296.946	259.489	290.095	310.960	313.371	314.589	276.272	285.105	292.386	222.891	247.481	128.734	122.575	160.151	128.758	108.155	105.672	104.550	141.721	134.106	126.800	195.436	170.871	43.533
77.000	291.288	297.376	259.393	290.930	311.127	313.634	314.851	276.009	284.890	292.673	222.700	246.167	128.448	122.121	159.579	128.471	107.940	105.601	104.646	141.578	134.106	126.514	195.508	172.279	43.669
78.000	292.506	297.710	260.444	290.906	311.342	313.514	314.637	276.176	284.938	292.434	222.986	244.854	127.851	121.811	159.029	128.543	107.892	105.553	104.383	141.578	134.129	126.394	195.436	173.425	40.916
79.000	291.933	298.331	260.683	290.620	311.270	313.491	314.732	275.962	284.508	292.506	222.628	244.114	127.325	121.500	158.600	128.376	107.797	105.481	104.359	141.459	134.106	126.275	195.317	174.261	38.029
80.000	292.983	298.116	260.874	290.429	311.270	313.873	315.233	276.511	284.986	292.959	223.058	242.968	126.800	121.190	158.265	128.161	107.940	105.481	104.359	141.435	134.010	126.060	195.413	175.359	38.254
81.000	293.532	298.737	261.494	290.691	311.199	313.586	314.851	276.391	284.795	292.864	223.249	242.085	126.347	120.736	157.788	128.137	107.773	105.457	104.431	141.435	134.034	125.989	195.389	176.385	41.322
82.000	293.795	299.286	262.067	291.217	311.533	313.705	314.851	276.391	284.890	293.341	223.321	240.414	125.893	120.402	157.454	128.042	107.821	105.505	104.359	141.291	134.129	125.678	195.413	177.794	44.030
83.000	294.535	299.763	262.282	290.930	311.438	313.849	315.066	276.439	285.153	293.819	222.939	239.507	125.368	119.996	157.096	127.875	107.678	105.386	104.192	141.339	134.225	125.344	195.365	179.131	42.405
84.000	294.320	299.978	262.616	290.691	311.079	313.682	314.780	276.344	284.795	293.843	223.297	237.907	124.747	119.805	156.570	127.803	107.558	105.266	104.383	141.315	134.177	125.129	195.341	180.301	39.427
85.000	295.251	300.742	263.309	291.384	311.032	313.514	314.828	276.487	285.033	294.153	222.676	236.714	124.389	119.209	155.950	127.707	107.415	105.314	104.407	141.244	134.129	124.867	195.293	181.924	38.525
86.000	295.944	300.360	263.571	291.121	311.461	313.849	314.947	276.749	285.033	294.893	223.082	235.568	124.031	118.803	155.496	127.540	107.511	105.338	104.407	141.148	134.129	124.580	195.245	183.189	39.292
87.000	296.111	300.575	264.120	291.503	311.438	313.896	314.947	276.582	284.795	294.702	223.225	234.708	123.744	118.850	155.210	127.612	107.487	105.243	104.240	141.053	134.249	124.413	195.222	184.049	42.405
88.000	296.254	301.005	264.717	291.264	311.628	313.753	314.923	276.654	284.819	294.678	223.153	233.920	123.482	118.492	154.756	127.469	107.511	105.266	104.288	141.124	134.225	124.437	195.174	184.646	42.811
89.000	296.636	301.411	264.741	291.718	311.652	313.920	314.971	276.773	284.890	294.941	223.321	233.395	123.004	118.421	154.493	127.254	107.415	105.338	104.311	140.981	134.153	124.246	195.389	185.266	40.420
