-----------------------------------------------------
BloodHound 307 VOC Analyser V2017.1
RoboScientific Ltd 
Espace North
Wisbech Road
Littleport
Cambridgeshire, UK
CB6 1RA 
-----------------------------------------------------
Date = 24/03/2022
Time = 12:52:28
Data is protected by RoboScientific Limited
-----------------------------------------------------
Name of the experiment = "50a_Day 43"
-----------------------------------------------------
Repeat No. = 4/4
-----------------------------------------------------
Experimental Time (in sec) and Flow Profile :
-----------------------------------------------------
Baseline = 2.00
Absorb = 4.00
Pause = 1.00
Desorb = 5.00
Flush = 20.00
Wait = 5.00
Higher Flow (V) = 4.00
Medium Flow (V) = 3.00
Low Flow (V) = 1.00
-----------------------------------------------------
Total Profile Time = 37 in sec
-----------------------------------------------------
Acquired data point per second = 4
--------------------------------------------------
Total data point stored  = 128
-----------------------------------------------------
Acquired sensor responses from 24 sensors
-----------------------------------------------------

Data Points	 Sen-1	 Sen-2	 Sen-3	 Sen-4	 Sen-5	 Sen-6	 Sen-7	 Sen-8	 Sen-9	 Sen-10	 Sen-11	 Sen-12	 Sen-13	 Sen-14	 Sen-15	 Sen-16	 Sen-17	 Sen-18	 Sen-19	 Sen-20	 Sen-21	 Sen-22	 Sen-23	 Sen-24	Humidity (%r.h.)
0.000	306.352	306.949	273.383	293.819	312.392	314.613	315.639	278.397	285.272	302.198	224.228	227.475	113.455	112.357	145.684	124.890	106.532	104.526	103.953	139.525	134.034	116.964	194.219	192.118	41.322
1.000	306.138	306.973	273.550	294.034	312.321	314.446	315.448	278.683	285.201	302.246	224.061	227.809	113.455	112.214	145.302	125.010	106.532	104.765	104.049	139.477	134.010	116.821	194.314	191.975	41.999
2.000	306.376	306.997	274.052	294.034	312.631	314.589	315.400	278.421	284.723	301.936	223.965	227.546	113.169	112.405	145.398	124.867	106.460	104.550	104.025	139.453	134.177	116.821	194.195	191.927	40.646
3.000	306.233	307.260	274.052	294.320	312.416	314.637	315.400	278.731	284.842	302.175	224.228	227.594	113.527	112.381	145.231	124.914	106.484	104.670	104.025	139.501	134.082	116.869	194.386	191.784	39.382
4.000	306.400	307.140	274.481	293.914	312.464	314.469	315.591	278.564	284.651	302.366	224.108	227.880	113.383	112.405	145.183	124.795	106.460	104.717	104.025	139.405	133.986	116.678	194.243	191.521	39.112
5.000	306.161	307.570	274.434	293.652	312.201	314.422	315.186	278.540	285.081	302.294	223.989	228.334	113.383	112.333	144.992	124.867	106.412	104.574	103.882	139.525	134.010	116.630	194.314	191.354	40.149
6.000	306.352	307.331	274.434	294.082	312.774	314.040	315.186	278.468	284.986	302.533	224.132	228.406	113.264	112.142	144.849	124.819	106.412	104.670	104.049	139.453	134.129	116.535	194.290	191.020	41.774
7.000	306.567	307.140	274.649	294.010	312.392	314.493	315.377	278.779	285.153	302.748	224.419	228.907	112.906	112.237	144.801	124.890	106.508	104.741	103.977	139.453	134.082	116.463	194.290	190.757	41.774
8.000	306.615	307.069	274.744	294.129	312.679	314.613	315.257	278.301	285.033	302.795	224.538	229.217	112.834	112.214	144.658	124.747	106.412	104.646	103.929	139.382	134.034	116.439	194.147	190.256	40.104
9.000	306.687	307.331	274.959	294.153	312.774	314.517	315.305	278.444	284.675	302.437	224.013	229.289	113.001	112.070	144.586	124.795	106.412	104.574	103.953	139.310	134.106	116.415	194.219	189.922	39.247
10.000	304.944	306.352	274.505	293.700	312.512	314.326	315.400	278.612	284.819	301.864	223.679	247.242	113.861	112.619	144.490	124.795	106.436	104.526	103.953	139.334	133.986	116.797	194.434	169.868	39.157
11.000	278.206	290.119	271.927	292.936	311.963	313.849	314.947	278.158	285.726	290.572	222.199	287.779	139.214	127.421	146.663	125.941	106.938	104.980	104.073	139.668	133.031	127.278	196.224	130.357	39.788
12.000	234.899	249.080	265.290	289.832	311.270	313.109	314.732	276.176	286.084	259.393	220.575	304.013	185.266	169.558	153.777	128.376	107.511	105.601	104.359	141.268	132.602	158.409	197.537	115.293	31.983
13.000	242.921	251.300	255.908	285.917	310.172	312.297	314.326	273.646	286.442	236.547	219.763	312.631	176.362	168.961	163.780	133.198	108.537	106.365	104.550	143.965	132.387	182.115	198.659	106.245	35.141
14.000	266.388	277.084	245.189	278.158	308.716	311.294	313.944	270.065	285.988	219.763	218.809	317.430	153.037	142.199	174.858	140.551	109.731	107.391	105.075	147.785	132.649	199.137	199.447	101.542	46.466
15.000	284.461	293.437	235.902	268.680	307.307	310.124	313.586	266.173	285.774	232.130	218.403	320.677	134.917	125.081	184.813	149.767	111.283	108.465	105.457	151.127	133.127	185.266	200.426	98.176	52.873
16.000	298.045	304.825	232.321	259.919	305.994	308.979	313.228	261.924	284.771	245.523	217.328	323.494	120.522	113.956	189.492	159.053	112.954	109.826	106.150	155.639	133.891	172.255	200.999	95.622	44.210
17.000	308.095	312.488	234.613	250.894	303.607	307.331	312.273	257.102	284.150	257.579	217.042	325.069	111.092	106.985	183.619	167.266	114.649	111.450	106.675	160.581	134.846	160.390	201.381	94.571	31.892
18.000	315.448	317.883	239.793	244.210	302.103	305.541	311.628	251.945	283.315	269.110	216.755	326.717	103.213	101.542	176.934	174.834	117.036	113.574	107.630	166.000	135.514	149.790	202.002	93.449	29.276
19.000	320.629	321.727	243.876	237.692	299.572	303.177	310.626	246.048	282.049	278.898	216.302	327.385	98.773	97.794	169.868	181.614	119.232	115.627	108.489	171.826	136.660	139.525	202.240	92.494	39.247
20.000	323.756	324.090	249.008	230.793	296.827	300.312	309.480	240.128	281.142	286.418	216.421	327.791	95.335	94.690	163.446	188.322	122.049	118.230	109.778	178.152	137.591	131.527	202.264	91.229	51.655
21.000	326.764	326.048	253.497	224.467	294.082	297.090	307.833	234.016	280.187	293.007	216.373	328.722	92.375	93.091	157.979	194.553	124.485	121.309	111.044	184.025	138.713	125.153	202.503	90.680	51.700
22.000	328.913	327.313	257.460	218.522	290.978	293.819	306.138	228.358	279.208	298.259	215.705	329.080	90.417	91.515	153.706	200.187	127.397	124.580	112.906	190.208	139.740	120.307	202.455	90.823	39.518
23.000	330.083	329.414	261.088	218.832	288.161	289.975	304.204	222.724	277.585	302.175	216.254	329.963	88.865	90.441	149.814	200.259	131.002	128.567	114.792	196.009	141.029	116.368	202.766	90.298	28.779
24.000	331.109	329.486	264.216	224.204	284.819	286.275	302.151	218.665	276.797	304.968	215.705	330.083	88.149	89.462	146.830	194.840	134.249	132.530	116.941	200.498	141.936	113.192	202.766	89.987	31.531
25.000	331.587	330.107	266.985	228.358	280.689	281.978	299.620	219.286	275.556	306.806	216.588	330.321	87.194	89.892	144.204	190.924	138.069	136.469	119.137	199.352	143.392	111.259	202.980	89.820	44.887
26.000	332.231	330.274	268.370	228.167	279.519	280.283	298.594	219.119	275.293	307.212	216.350	330.632	87.600	89.414	142.581	190.924	139.668	138.188	120.402	199.232	143.679	111.402	203.004	89.820	54.226
27.000	332.661	330.107	268.943	226.949	279.208	280.378	298.188	218.904	275.078	306.687	215.920	330.560	87.123	89.032	142.795	191.712	139.405	138.021	120.736	199.590	143.727	111.808	202.837	90.346	48.587
28.000	332.566	331.014	268.895	225.994	279.638	281.094	298.235	219.095	275.460	306.448	216.015	330.966	86.979	88.173	142.724	193.145	138.952	137.901	120.927	199.901	143.583	112.261	202.598	90.465	35.141
29.000	332.255	331.085	269.038	224.681	279.614	280.665	297.997	219.262	275.842	306.448	216.254	331.085	87.075	88.459	142.724	194.267	138.737	137.710	120.975	199.949	143.201	112.715	202.933	90.011	28.102
30.000	332.828	330.680	269.945	228.143	278.755	279.161	297.615	220.050	275.556	307.809	216.135	330.536	86.884	88.006	142.055	191.235	139.787	139.262	121.954	198.325	143.607	110.924	202.933	89.558	34.915
31.000	332.398	331.491	271.951	232.345	275.699	276.439	295.371	221.435	274.625	308.358	215.944	331.157	86.884	87.982	140.671	186.388	143.082	142.390	123.792	196.869	144.467	110.399	203.052	89.916	49.399
32.000	331.945	330.727	272.810	234.422	272.977	274.434	293.938	220.647	274.744	305.565	215.920	329.701	88.269	88.746	139.310	184.502	145.804	144.299	125.057	197.824	143.894	112.667	202.527	90.560	53.865
33.000	329.677	330.321	273.216	233.992	272.858	274.744	294.058	221.172	276.463	299.644	216.373	328.984	90.202	89.009	138.737	184.789	145.660	143.965	124.938	197.728	142.413	119.423	202.049	91.778	43.082
34.000	326.955	330.345	273.431	231.676	274.529	276.105	295.084	226.830	278.277	291.503	216.994	327.671	92.136	90.226	139.047	186.866	143.918	142.127	124.174	191.402	140.671	127.182	201.596	92.757	31.035
35.000	324.114	328.650	273.001	227.594	276.893	278.803	296.326	233.109	280.068	281.476	217.925	324.711	95.598	91.086	139.764	191.163	141.459	139.907	122.718	184.311	139.191	137.018	200.712	94.643	29.411
36.000	321.440	327.218	272.118	222.437	279.614	280.999	297.591	239.244	280.903	269.062	218.665	322.706	99.083	92.733	139.978	196.129	138.570	137.639	121.214	177.675	137.639	149.122	200.139	96.958	39.788
37.000	317.621	324.854	271.497	217.710	282.503	283.720	299.214	244.759	282.121	255.478	219.095	320.104	102.593	94.595	141.864	200.880	136.039	135.204	119.996	172.590	136.708	163.112	199.232	99.608	51.068
38.000	311.819	323.016	269.635	219.883	285.487	286.299	300.766	249.008	282.742	242.061	219.549	318.027	106.985	97.054	143.464	198.994	133.294	132.434	118.468	167.934	135.944	177.507	198.779	101.781	50.797
39.000	305.398	320.748	267.296	226.830	287.779	288.710	301.912	252.470	283.577	228.382	220.050	314.660	114.123	99.083	145.636	192.357	130.811	130.214	116.893	163.923	135.323	191.545	198.325	105.386	39.969
40.000	297.161	317.477	265.362	233.538	289.904	290.739	303.559	255.598	284.007	218.450	220.599	311.461	122.384	102.187	148.000	185.051	128.400	127.851	115.460	160.820	134.941	200.808	198.063	107.892	30.674
41.000	287.421	314.040	262.521	240.462	292.577	293.222	304.872	257.961	284.174	228.979	220.766	308.549	132.029	105.290	150.698	177.770	126.084	125.535	114.100	157.860	134.464	190.375	197.824	110.566	32.840
42.000	274.123	310.435	259.059	246.836	294.440	295.490	305.947	260.324	284.723	238.051	221.220	306.209	144.443	109.015	154.088	171.276	124.079	123.458	113.097	155.902	134.320	180.587	197.537	113.288	43.262
43.000	261.160	305.923	255.574	252.757	296.349	297.161	307.045	262.187	284.484	246.191	221.053	302.962	157.812	112.930	157.812	166.191	122.336	121.453	112.094	154.302	134.225	172.876	197.251	116.153	50.933
44.000	249.677	301.172	252.231	257.746	297.997	299.214	308.000	263.762	284.771	252.733	221.315	300.671	170.178	118.301	161.441	160.915	120.593	119.614	111.115	152.655	134.201	166.478	196.988	118.468	46.466
45.000	238.289	295.299	248.794	261.996	299.167	300.909	309.002	265.242	284.914	258.534	221.626	297.949	181.757	124.031	165.953	156.547	119.209	118.063	110.137	151.271	134.106	160.844	196.773	121.357	37.171
46.000	229.384	287.803	244.902	265.600	300.575	302.533	309.933	266.746	284.699	262.354	221.769	295.705	190.423	131.718	170.011	152.846	117.895	116.391	109.301	150.220	133.938	156.308	196.630	123.386	31.531
47.000	223.106	279.017	241.106	268.776	301.745	303.607	310.124	267.224	284.819	266.364	221.817	293.676	196.940	139.620	173.807	149.910	116.702	115.031	108.633	149.289	134.010	152.775	196.582	125.750	36.404
48.000	219.907	268.059	238.098	271.497	302.819	305.039	311.175	268.274	284.675	269.158	221.840	291.360	200.020	150.769	178.009	147.475	115.866	113.909	108.203	148.501	133.962	149.886	196.439	128.066	45.879
49.000	224.705	256.552	234.875	274.028	304.252	306.376	311.318	269.349	284.842	271.975	222.461	289.975	195.054	162.252	181.948	144.944	115.007	112.596	107.654	147.642	133.891	147.117	196.153	129.188	48.857
50.000	232.034	244.520	232.154	276.296	304.920	307.618	311.843	269.850	285.010	274.816	222.437	287.755	187.916	175.168	185.815	142.461	114.123	111.474	107.272	146.926	133.986	144.467	196.153	131.408	42.766
51.000	238.337	231.820	230.363	277.871	305.278	308.429	312.416	270.757	284.962	276.821	222.103	285.702	180.826	187.797	189.062	140.456	113.455	110.542	106.961	146.472	134.010	141.936	196.057	133.318	34.690
52.000	244.735	221.649	229.743	279.519	306.066	309.026	312.536	271.068	285.129	278.731	222.246	283.577	174.714	198.086	190.924	138.952	112.954	109.659	106.556	145.804	133.962	140.050	196.033	135.251	33.291
53.000	250.250	228.000	230.029	281.166	306.591	309.719	312.751	271.927	285.057	280.044	222.390	281.691	168.913	191.569	191.235	137.663	112.023	108.871	106.269	145.517	134.106	138.498	195.818	136.946	39.563
54.000	255.430	238.242	231.390	282.073	307.260	310.483	313.276	272.428	284.819	281.596	222.437	279.877	164.425	181.852	189.826	136.612	111.879	108.633	106.006	144.944	133.986	137.281	195.771	138.570	47.188
55.000	259.584	247.433	232.989	282.909	307.260	310.602	313.204	272.548	285.177	283.362	222.342	278.349	160.104	172.351	188.131	135.562	111.354	108.083	105.959	144.634	134.106	136.063	195.699	140.193	46.556
56.000	263.547	255.335	234.899	284.198	308.358	311.366	313.634	273.264	285.033	284.270	222.676	276.893	156.356	164.234	186.054	134.917	110.996	107.630	105.792	144.299	134.082	135.084	195.675	141.578	40.239
57.000	266.484	261.900	236.642	284.580	307.880	311.581	313.610	273.526	285.224	284.914	223.130	275.484	152.679	157.573	184.144	134.010	110.638	107.367	105.553	144.085	134.010	134.177	195.627	143.130	34.329
58.000	269.492	267.057	238.289	285.535	308.334	311.819	313.801	273.813	284.938	285.583	222.795	273.956	149.981	152.106	181.948	133.437	110.280	107.200	105.410	143.679	134.034	133.389	195.389	144.371	35.637
59.000	272.022	271.879	240.247	285.965	308.859	311.963	313.729	274.076	284.914	286.705	222.652	272.500	147.642	147.833	180.038	132.864	109.969	106.866	105.290	143.512	134.177	132.506	195.460	145.875	42.541
60.000	274.792	275.317	241.990	286.347	308.907	312.416	314.660	274.219	284.747	287.063	222.891	271.115	145.254	144.323	178.295	132.315	109.707	106.747	105.314	143.416	134.010	131.981	195.293	147.236	46.692
61.000	276.582	278.397	243.327	287.182	309.384	312.512	314.040	274.267	284.842	287.492	222.700	270.208	143.130	141.196	176.505	131.838	109.444	106.269	105.099	143.321	134.177	131.432	195.341	148.668	43.939
62.000	278.062	281.190	244.950	287.063	309.575	312.392	313.944	274.338	284.938	288.424	223.010	268.656	141.506	138.522	174.834	131.360	109.349	106.341	105.004	142.939	134.034	130.739	195.317	149.886	38.751
63.000	279.781	283.243	246.502	287.803	309.575	312.488	313.849	274.696	285.129	288.877	223.177	267.248	139.525	136.302	173.425	131.097	109.038	106.150	105.099	142.843	134.034	130.238	195.317	151.127	34.735
64.000	281.309	285.248	247.552	287.946	309.766	312.894	314.183	274.863	285.224	289.426	223.321	266.150	138.283	134.201	171.993	130.620	109.015	106.078	104.932	142.628	134.082	129.856	195.389	152.416	37.984
65.000	282.956	286.991	248.913	288.185	309.957	313.013	314.469	274.911	285.415	290.023	223.034	264.622	136.803	132.625	170.775	130.453	108.847	106.126	104.956	142.533	134.153	129.331	195.198	153.730	44.255
66.000	285.344	289.140	250.130	288.543	310.363	313.204	314.613	275.436	284.986	290.429	223.201	262.234	134.917	130.525	169.223	130.143	108.537	105.887	104.789	142.342	134.153	128.448	195.198	156.093	45.699
67.000	286.991	290.644	251.635	289.283	310.387	313.371	314.804	275.389	284.771	291.097	223.488	260.038	133.318	128.734	167.743	129.665	108.489	105.744	104.550	142.246	134.225	127.827	195.150	158.433	41.909
68.000	287.683	292.028	252.876	289.307	310.578	313.300	314.469	275.747	284.914	291.646	223.130	257.889	131.933	127.373	166.526	129.331	108.489	105.720	104.693	142.151	134.082	127.349	195.054	160.533	37.217
69.000	288.805	293.246	254.070	289.928	310.912	313.204	314.637	275.723	284.842	291.933	223.583	256.099	130.930	126.371	165.213	129.116	108.274	105.625	104.574	141.888	134.177	126.848	195.102	162.348	36.449
70.000	289.402	294.105	255.168	290.142	310.602	313.443	314.422	275.771	285.081	292.363	223.512	254.499	130.190	125.344	164.449	128.782	108.107	105.625	104.670	141.936	134.177	126.609	194.983	163.709	40.149
71.000	290.047	294.869	256.385	289.880	310.674	313.443	314.756	275.938	284.938	292.577	223.416	253.162	129.808	124.604	163.207	128.734	108.083	105.481	104.479	141.745	134.177	126.514	194.887	165.117	44.706
72.000	290.739	295.944	256.600	290.691	311.032	313.586	314.517	276.057	284.842	292.697	223.822	251.682	129.068	124.007	162.491	128.639	108.012	105.505	104.455	141.650	134.034	126.251	194.911	166.478	43.488
73.000	291.097	296.206	257.579	290.787	311.223	314.040	314.732	276.105	284.938	292.983	223.631	250.775	128.758	123.506	161.775	128.352	107.940	105.577	104.479	141.673	134.129	125.941	194.959	167.695	40.239
74.000	291.264	296.421	258.104	290.572	310.888	313.562	314.995	276.558	285.177	293.103	223.559	249.844	128.352	123.028	161.178	128.376	107.892	105.481	104.598	141.626	134.201	126.060	194.959	168.507	37.217
75.000	291.623	296.612	258.773	290.381	311.127	313.538	314.732	276.224	285.224	293.055	223.249	248.841	127.970	122.670	160.605	128.066	107.869	105.457	104.455	141.435	134.058	125.893	194.959	169.581	38.119
76.000	292.076	297.137	258.868	290.763	310.745	313.538	315.186	276.606	285.177	293.532	223.273	248.101	127.827	122.408	160.342	128.161	107.821	105.338	104.383	141.363	134.082	125.917	195.102	170.441	41.864
77.000	292.243	297.782	259.417	290.787	311.151	313.896	314.828	276.391	284.819	292.840	223.368	246.931	127.254	122.049	159.937	128.066	107.845	105.362	104.383	141.411	134.129	125.941	194.935	171.730	44.390
78.000	292.983	298.045	259.608	290.859	311.175	313.777	314.732	276.511	284.962	293.437	223.249	245.786	126.609	121.739	159.626	127.946	107.725	105.243	104.311	141.291	134.153	125.654	195.007	173.091	42.766
79.000	293.127	298.379	260.038	290.954	310.769	313.610	314.660	276.224	285.248	294.034	223.464	244.019	126.466	121.047	159.006	127.851	107.821	105.195	104.455	141.172	134.129	125.439	194.983	174.356	39.247
80.000	294.177	298.283	260.635	291.264	311.318	313.920	315.042	276.678	285.033	293.795	223.416	243.136	125.893	120.832	158.647	127.707	107.749	105.290	104.479	141.339	134.249	125.296	194.935	175.717	37.668
81.000	293.771	299.262	260.993	291.073	310.984	313.586	314.780	276.654	285.081	294.153	222.915	242.109	125.630	120.641	158.289	127.612	107.654	105.219	104.311	140.981	134.034	124.986	194.959	176.409	39.021
82.000	294.010	299.381	261.256	291.479	311.461	314.040	314.875	276.630	285.081	293.914	223.488	240.772	125.272	120.426	157.979	127.564	107.558	105.219	104.407	141.124	134.106	125.034	194.935	177.507	42.902
83.000	294.463	299.334	261.685	291.217	311.127	313.682	314.995	276.726	285.057	294.225	223.416	240.390	125.081	120.259	157.645	127.469	107.606	105.362	104.431	141.077	134.034	124.962	194.840	178.295	43.804
84.000	295.180	299.596	261.733	291.790	311.438	314.111	315.114	276.821	284.771	294.105	223.607	239.196	124.652	119.972	157.454	127.349	107.439	105.171	104.407	141.005	134.153	124.795	194.887	179.202	41.097
85.000	295.490	300.098	262.067	291.073	311.366	314.040	315.210	276.821	284.819	294.368	223.655	238.074	124.222	119.614	157.143	127.278	107.391	105.219	104.335	141.100	134.106	124.508	194.840	180.730	39.066
86.000	296.469	300.074	262.210	291.551	311.581	314.255	315.019	277.179	285.057	294.869	223.894	236.332	123.410	119.209	156.738	127.373	107.415	105.004	104.240	140.909	134.034	124.317	194.887	182.306	38.525
87.000	296.851	300.957	262.974	292.028	311.628	313.777	314.995	276.869	285.153	295.156	223.655	234.684	122.957	118.827	156.141	127.134	107.558	105.123	104.264	140.814	134.106	123.816	194.816	183.906	40.194
88.000	297.376	300.766	263.571	291.981	311.772	313.920	315.186	276.988	284.890	295.180	223.774	233.538	122.742	118.731	155.592	126.967	107.272	105.052	104.359	140.933	134.129	123.530	194.840	185.266	42.676
89.000	297.591	300.957	264.025	292.124	311.748	314.016	315.162	277.084	284.890	295.729	223.488	232.631	122.527	118.301	155.377	126.920	107.391	105.052	104.335	140.790	134.153	123.506	194.816	185.911	42.180
