-----------------------------------------------------
BloodHound 307 VOC Analyser V2017.1
RoboScientific Ltd 
Espace North
Wisbech Road
Littleport
Cambridgeshire, UK
CB6 1RA 
-----------------------------------------------------
Date = 24/03/2022
Time = 12:14:44
Data is protected by RoboScientific Limited
-----------------------------------------------------
Name of the experiment = "50a_Day 30"
-----------------------------------------------------
Repeat No. = 4/4
-----------------------------------------------------
Experimental Time (in sec) and Flow Profile :
-----------------------------------------------------
Baseline = 2.00
Absorb = 4.00
Pause = 1.00
Desorb = 5.00
Flush = 20.00
Wait = 5.00
Higher Flow (V) = 4.00
Medium Flow (V) = 3.00
Low Flow (V) = 1.00
-----------------------------------------------------
Total Profile Time = 37 in sec
-----------------------------------------------------
Acquired data point per second = 4
--------------------------------------------------
Total data point stored  = 128
-----------------------------------------------------
Acquired sensor responses from 24 sensors
-----------------------------------------------------

Data Points	 Sen-1	 Sen-2	 Sen-3	 Sen-4	 Sen-5	 Sen-6	 Sen-7	 Sen-8	 Sen-9	 Sen-10	 Sen-11	 Sen-12	 Sen-13	 Sen-14	 Sen-15	 Sen-16	 Sen-17	 Sen-18	 Sen-19	 Sen-20	 Sen-21	 Sen-22	 Sen-23	 Sen-24	Humidity (%r.h.)
0.000	308.429	307.976	281.930	294.416	312.894	314.255	315.615	278.373	284.771	304.252	223.750	239.960	111.211	111.688	137.758	124.461	106.006	104.765	103.834	139.835	134.273	114.338	194.816	179.322	39.066
1.000	308.429	307.594	281.930	294.392	312.536	314.660	315.591	278.182	284.866	304.538	223.512	239.507	111.378	111.521	137.710	124.532	106.030	104.813	103.953	139.859	134.201	114.386	194.696	179.489	42.495
2.000	308.382	307.331	281.882	293.962	312.512	314.159	315.591	278.564	284.842	304.848	223.703	239.626	111.187	111.832	137.758	124.365	106.006	104.646	104.049	139.740	134.177	114.410	194.792	179.417	43.759
3.000	308.262	307.666	281.476	294.344	312.965	314.469	315.329	278.444	284.747	304.586	223.464	239.746	111.235	111.712	137.615	124.485	106.006	104.646	103.882	139.787	134.344	114.458	194.720	179.608	41.503
4.000	308.238	307.689	281.858	294.272	312.894	314.326	315.568	278.253	284.675	304.586	223.512	239.793	111.306	111.688	137.710	124.437	106.078	104.646	103.929	139.668	134.392	114.362	194.696	179.537	39.157
5.000	308.406	308.047	281.763	294.225	312.870	314.493	315.639	278.253	284.914	304.371	223.726	239.268	111.163	111.855	137.782	124.628	106.030	104.502	103.858	139.716	134.344	114.458	194.792	179.871	38.254
6.000	308.382	308.047	281.238	294.272	313.013	314.517	315.233	278.062	284.866	304.610	223.583	239.555	111.068	111.951	137.854	124.508	106.102	104.550	103.786	139.764	134.320	114.410	194.792	179.799	39.157
7.000	308.286	307.522	281.214	294.129	312.965	314.565	315.400	278.206	284.699	304.634	223.631	239.364	110.948	111.855	137.806	124.437	105.983	104.574	103.977	139.787	134.344	114.338	194.816	179.799	42.586
8.000	308.382	307.498	281.166	294.058	312.679	314.684	315.520	278.779	285.129	304.777	223.726	239.531	111.211	111.736	137.806	124.437	106.054	104.622	103.977	139.811	134.225	114.195	194.863	179.728	43.578
9.000	308.692	307.522	281.643	294.058	312.536	314.374	315.711	278.659	284.962	304.562	223.297	239.435	111.115	111.832	137.782	124.413	106.006	104.574	103.834	139.716	134.177	114.171	194.720	179.799	40.961
10.000	307.116	306.233	281.047	294.177	313.109	314.517	315.544	278.803	284.866	303.989	223.058	245.141	112.548	112.739	138.045	124.580	106.006	104.502	103.858	139.787	134.082	114.720	195.126	174.690	38.886
11.000	285.368	289.546	278.993	293.270	312.392	313.825	315.424	278.158	285.726	296.779	221.602	283.720	133.222	129.188	140.098	125.416	106.365	104.908	104.001	139.978	133.222	122.026	196.869	133.819	43.398
12.000	246.215	244.377	272.476	290.477	311.533	313.037	314.589	276.009	286.084	272.357	220.193	300.480	172.303	172.995	146.233	128.137	107.152	105.648	104.192	141.459	132.745	145.422	198.206	116.773	40.510
13.000	232.989	253.640	263.380	285.033	310.865	312.345	314.565	273.121	286.084	252.566	219.000	309.695	187.630	166.263	154.780	132.960	107.964	106.388	104.431	144.634	132.554	165.857	199.399	108.871	31.125
14.000	258.988	279.017	254.595	278.182	309.623	311.748	314.278	269.826	286.179	236.451	217.854	314.422	160.772	140.862	165.141	140.933	109.301	107.272	104.765	147.976	132.888	183.428	200.498	103.858	33.787
15.000	279.925	295.084	245.165	269.014	308.047	310.101	313.849	265.839	285.583	220.169	217.328	319.029	139.883	124.437	175.383	149.838	110.710	108.418	105.314	151.748	133.556	199.614	201.142	100.468	45.925
16.000	294.583	304.968	238.074	260.802	306.806	309.313	313.395	261.447	284.604	232.058	216.541	320.677	124.103	113.479	183.619	158.242	112.309	109.683	105.744	156.069	134.058	186.293	201.763	97.770	52.918
17.000	306.257	311.796	235.138	252.804	304.634	307.427	312.488	256.624	284.317	247.003	216.350	322.228	113.455	106.484	187.630	165.571	114.028	111.354	106.484	161.059	134.893	171.133	202.503	97.078	44.797
18.000	314.087	317.048	236.356	245.642	302.580	305.421	311.915	251.109	283.004	261.351	216.087	324.234	105.983	101.709	183.285	172.351	116.105	113.073	107.200	166.168	135.848	157.716	202.694	95.359	32.299
19.000	319.173	321.035	239.531	239.793	300.933	303.631	311.270	245.833	281.954	273.288	215.609	324.807	100.277	98.271	177.412	179.226	118.349	115.556	107.988	171.993	136.660	145.422	202.837	94.380	29.501
20.000	323.613	323.470	243.398	232.989	298.331	300.480	310.124	239.769	281.214	283.482	215.562	325.714	96.767	95.216	171.706	185.959	120.736	118.301	109.158	178.009	137.782	135.801	203.339	93.354	40.510
21.000	325.976	325.427	247.481	226.353	295.514	297.328	308.477	233.634	279.877	289.975	215.562	326.478	93.545	93.473	165.762	192.572	123.434	121.214	110.375	184.550	138.713	128.113	203.625	92.900	52.422
22.000	327.791	327.313	251.300	220.074	292.959	293.914	307.045	227.737	278.993	295.466	215.180	327.552	91.062	92.112	160.844	198.444	126.347	124.699	111.999	190.232	139.811	122.288	203.386	92.136	50.166
23.000	328.984	328.483	254.571	217.543	289.784	290.023	304.992	222.294	277.752	300.002	215.442	327.266	89.629	90.441	156.117	201.166	129.331	128.328	113.574	195.914	140.933	118.086	203.697	91.659	37.081
24.000	330.298	328.555	257.603	222.318	286.347	285.797	303.321	218.474	276.463	303.464	215.251	328.507	88.985	90.346	153.109	196.487	132.506	132.339	115.580	200.641	142.151	114.864	203.649	92.160	28.102
25.000	332.040	329.772	260.324	226.018	283.124	282.407	301.291	219.405	275.532	305.278	215.204	328.650	87.934	88.937	150.077	193.025	136.350	136.684	117.967	199.686	143.559	112.763	203.816	91.109	34.509
26.000	332.231	329.796	261.876	226.353	281.476	280.378	300.575	218.904	275.293	305.684	215.204	328.961	87.863	89.271	148.931	193.025	137.352	138.140	118.994	199.614	143.822	113.025	203.697	91.993	48.226
27.000	331.921	330.393	262.091	224.825	282.312	280.498	300.217	218.928	275.293	305.398	215.466	328.388	87.910	88.555	148.382	194.004	137.114	138.212	119.089	199.853	143.703	113.288	203.959	91.778	53.820
28.000	331.515	330.584	262.545	223.822	282.479	280.593	299.740	219.023	275.293	304.920	215.681	329.581	87.648	88.555	148.812	195.031	136.851	137.973	119.256	200.068	143.273	113.598	203.601	92.017	44.255
29.000	332.255	330.775	262.497	222.604	282.551	280.689	299.644	218.785	275.866	305.207	215.371	328.937	87.457	89.056	148.621	196.344	136.421	137.997	119.471	200.020	143.249	113.885	203.721	91.945	31.171
30.000	332.327	330.417	263.380	225.827	281.620	279.519	298.570	219.716	275.365	306.424	214.822	329.868	87.051	88.937	147.952	192.715	137.519	139.214	120.331	198.516	143.440	111.975	203.792	91.635	29.546
31.000	331.825	331.252	265.028	230.387	278.707	276.344	297.090	221.291	274.529	307.021	215.013	329.032	87.934	88.627	145.899	188.394	141.124	142.819	122.145	197.466	144.228	111.641	203.721	91.491	41.232
32.000	330.465	331.038	266.317	231.891	275.890	274.195	296.015	219.954	275.508	303.249	215.204	327.385	89.080	89.223	144.681	186.723	143.273	144.276	123.124	198.612	143.703	114.935	203.410	92.781	52.783
33.000	328.435	330.226	266.555	231.366	276.391	275.174	296.254	222.628	276.893	297.639	215.800	326.908	91.635	89.868	144.252	187.487	142.772	143.679	122.909	196.511	141.912	121.691	202.766	93.998	50.166
34.000	325.523	328.674	266.890	228.859	278.325	277.107	297.448	228.453	278.659	288.376	216.421	325.189	94.022	90.823	144.681	190.256	140.671	141.841	122.002	189.659	139.955	131.026	202.049	95.693	36.946
35.000	321.966	327.289	266.532	224.443	280.760	279.065	298.307	235.210	280.283	276.630	216.946	322.968	97.102	92.232	145.063	194.386	138.164	139.453	120.689	182.378	138.689	142.557	201.476	97.412	28.779
36.000	318.814	325.666	265.433	219.071	283.315	281.572	299.668	241.035	281.309	264.096	217.854	319.698	100.683	93.401	146.114	199.089	135.490	136.827	119.352	175.908	137.615	154.470	200.760	99.465	35.186
37.000	314.278	323.852	263.882	217.567	286.036	284.222	301.172	245.881	282.551	249.247	218.761	317.143	104.884	96.099	147.976	201.118	132.960	134.655	118.158	170.751	136.493	168.937	200.020	102.139	48.361
38.000	308.573	320.366	262.091	223.989	288.424	287.039	302.318	250.202	282.885	234.875	218.880	314.541	111.569	98.462	149.385	195.078	130.334	131.957	116.893	166.478	135.729	183.977	199.352	104.598	52.061
39.000	300.671	318.361	260.683	230.888	290.859	289.211	303.440	253.735	283.720	221.482	219.191	311.724	119.041	101.685	151.891	187.510	128.113	129.689	115.675	162.778	135.371	198.277	199.113	107.487	42.541
40.000	291.217	313.920	258.415	237.764	292.768	291.384	304.705	256.433	283.935	223.535	219.668	308.788	128.615	105.386	154.541	180.301	125.821	127.182	114.147	159.626	134.869	194.744	198.707	110.590	31.892
41.000	279.423	309.886	255.478	244.616	295.562	293.843	305.899	259.107	284.102	234.016	219.763	305.445	140.360	108.967	157.788	173.664	123.697	124.938	112.906	157.167	134.631	184.335	198.635	112.930	31.983
42.000	265.290	305.660	252.470	250.751	297.113	296.206	307.260	261.160	284.389	242.897	220.456	303.130	153.706	113.670	161.226	167.600	121.930	122.813	111.784	155.329	134.416	175.478	198.277	115.747	41.548
43.000	251.611	300.193	249.152	256.099	298.426	297.877	308.238	262.927	284.556	250.274	220.527	300.480	167.863	118.659	165.069	162.610	120.426	120.999	110.853	153.586	134.344	168.698	198.206	118.373	50.166
44.000	240.199	294.010	246.239	260.563	299.811	299.692	308.979	264.240	284.580	256.457	220.623	297.949	179.966	124.962	168.961	158.051	119.041	118.994	109.946	152.297	134.177	162.610	197.752	120.975	46.827
45.000	229.743	286.466	242.491	264.598	301.435	301.554	309.623	265.672	284.986	261.924	220.718	295.466	190.709	132.864	173.401	153.992	117.633	117.370	109.301	151.056	134.297	157.311	197.681	123.673	37.623
46.000	221.458	277.370	239.387	267.701	302.103	302.771	310.674	266.961	284.938	265.600	220.766	293.437	198.230	142.032	177.412	150.602	116.559	115.818	108.704	150.029	134.177	153.252	197.513	125.798	31.802
47.000	221.482	266.746	236.356	270.996	303.368	304.204	310.936	267.773	284.699	269.468	221.148	290.119	198.063	152.034	181.017	147.618	115.222	114.482	108.107	149.170	134.129	149.814	197.251	127.636	36.946
48.000	227.570	254.523	234.088	273.407	303.917	305.398	311.557	268.585	284.604	271.903	221.411	288.209	192.237	164.091	184.407	145.493	114.696	113.479	107.773	148.286	134.177	146.997	197.084	129.975	46.195
49.000	234.374	242.061	232.536	275.412	304.729	306.758	311.796	269.277	284.842	275.030	221.482	286.705	185.386	177.173	187.081	143.082	113.789	112.309	107.320	147.475	134.082	144.132	196.869	131.145	48.587
50.000	241.441	229.766	231.270	277.585	305.851	307.833	312.464	270.256	284.819	277.489	221.960	284.771	178.176	189.969	189.014	140.862	112.978	111.139	106.818	146.902	134.225	141.936	196.893	133.938	42.089
51.000	247.719	221.458	231.987	279.543	306.018	308.453	312.631	270.877	284.866	279.328	221.864	281.834	171.587	198.612	188.728	139.143	112.285	110.041	106.436	146.185	134.153	139.716	196.702	135.896	34.554
52.000	253.544	229.695	233.968	280.879	306.639	309.504	313.109	271.426	285.033	281.118	221.673	279.543	165.977	189.516	187.009	137.806	111.832	109.468	106.269	145.899	134.225	137.901	196.726	137.710	34.329
53.000	258.629	239.769	236.308	282.407	307.116	309.910	313.324	272.070	284.771	282.336	221.697	277.489	160.963	179.537	184.526	136.397	111.306	108.752	106.078	145.493	134.153	136.397	196.558	139.716	41.728
54.000	262.951	249.319	238.528	283.338	307.976	310.721	313.419	272.357	284.699	283.577	222.199	276.248	156.809	170.083	181.972	135.419	110.924	108.322	105.768	144.920	134.297	135.323	196.558	141.626	47.233
55.000	266.221	257.961	240.915	284.055	308.119	310.745	313.443	272.452	284.914	285.010	221.888	274.362	153.157	162.014	179.274	134.583	110.519	107.821	105.481	144.801	134.225	134.129	196.535	143.368	44.526
56.000	269.659	264.287	242.921	285.057	308.549	311.438	314.016	273.192	284.890	285.678	222.055	273.168	150.292	154.899	176.863	133.891	110.232	107.606	105.457	144.323	134.273	133.461	196.367	144.992	38.209
57.000	272.858	269.635	245.117	285.988	309.217	311.676	314.016	273.670	284.437	286.394	222.222	271.426	147.188	149.456	174.523	133.151	109.802	107.296	105.362	144.037	134.058	132.506	196.463	146.400	34.329
58.000	274.840	274.338	246.860	286.370	309.098	311.748	314.064	273.694	284.962	287.492	222.175	269.826	144.562	144.849	172.590	132.506	109.444	106.985	105.123	143.941	134.273	131.981	196.391	147.904	37.984
59.000	277.298	278.516	249.080	286.776	309.742	312.225	313.968	274.028	284.795	288.209	222.222	268.036	142.175	141.244	170.393	131.957	109.277	106.938	105.075	143.559	134.225	131.002	196.296	149.767	44.842
60.000	280.163	282.145	250.799	287.230	310.005	312.512	314.565	274.099	284.699	288.591	222.294	265.839	139.883	137.687	168.483	131.408	109.062	106.699	105.171	143.583	134.320	130.238	196.129	151.557	45.744
61.000	281.548	284.771	252.685	287.803	310.220	312.560	314.231	274.577	284.771	289.498	222.294	264.192	137.806	134.965	166.908	131.026	108.943	106.460	104.956	143.345	134.225	129.641	196.105	153.682	41.232
62.000	282.813	286.609	254.165	288.042	310.053	312.631	314.231	274.529	284.986	290.071	222.342	262.425	136.588	132.721	164.974	130.596	108.728	106.269	104.884	143.082	134.201	129.068	195.962	155.663	35.998
63.000	284.270	288.400	255.550	288.567	310.435	312.798	314.398	275.007	284.795	290.405	222.437	260.348	135.347	131.145	163.804	130.262	108.537	106.317	104.884	142.986	134.201	128.567	196.033	157.096	36.630
64.000	285.272	289.665	257.102	288.805	310.411	312.727	314.589	274.792	284.723	290.859	222.628	258.701	134.559	129.570	162.419	130.047	108.418	106.174	104.670	142.700	134.225	128.352	195.890	158.791	42.089
65.000	286.299	290.787	257.985	289.164	310.578	313.085	314.708	275.412	284.699	291.217	222.342	257.436	133.509	128.543	161.536	129.784	108.394	106.174	104.741	142.628	134.177	127.994	195.890	160.199	44.932
66.000	287.015	291.909	258.988	289.307	311.127	312.965	314.828	275.341	284.556	291.002	222.604	255.669	132.697	127.636	160.342	129.546	108.227	106.054	104.693	142.652	134.106	127.922	195.914	162.061	43.037
67.000	287.683	292.888	259.990	289.331	310.626	312.894	314.756	275.317	284.890	291.599	222.485	254.356	132.029	126.681	159.483	129.283	108.060	105.935	104.526	142.413	134.225	127.660	195.914	163.470	39.021
68.000	288.662	293.867	260.802	289.928	310.626	312.989	314.589	275.627	284.842	291.455	222.557	252.351	131.145	125.630	158.671	128.997	108.179	106.102	104.717	142.294	134.273	127.373	195.866	165.356	36.630
69.000	289.116	294.177	261.375	289.975	310.769	313.300	314.708	275.818	284.986	292.410	222.437	251.062	130.620	125.081	157.907	129.044	107.940	105.768	104.670	142.318	134.273	127.111	195.890	166.741	38.976
70.000	289.737	294.822	261.709	289.808	310.745	313.228	314.947	275.603	284.938	292.458	222.437	249.510	130.023	124.485	157.239	128.901	107.988	105.887	104.526	142.246	134.273	127.111	195.890	168.245	43.849
71.000	290.500	295.609	262.736	290.142	311.151	313.156	314.875	275.651	284.795	292.482	222.270	248.268	129.546	123.864	156.547	128.615	107.797	105.720	104.598	142.294	134.201	126.753	195.771	169.868	43.533
72.000	291.312	295.920	262.951	290.119	311.366	313.586	315.114	275.938	284.890	292.530	222.461	246.717	128.734	123.434	156.045	128.662	107.749	105.672	104.502	142.055	134.249	126.609	195.818	171.157	40.646
73.000	291.575	297.113	263.500	290.023	311.079	313.276	314.684	275.723	284.914	292.601	222.390	245.547	128.257	122.885	155.592	128.400	107.749	105.720	104.526	142.032	134.273	126.442	195.890	172.566	37.803
74.000	291.957	297.424	264.311	290.691	311.151	313.395	314.971	275.914	285.057	292.959	222.748	243.900	127.469	122.336	155.066	128.280	107.606	105.577	104.431	141.960	134.320	126.347	195.699	173.592	38.254
75.000	292.816	297.543	264.837	290.691	311.485	313.491	314.923	275.890	284.771	293.103	222.676	242.825	127.063	121.811	154.589	128.209	107.701	105.815	104.526	141.888	134.201	125.989	195.723	175.335	41.909
76.000	293.318	298.164	265.266	291.002	311.676	313.371	314.660	275.914	284.795	292.983	222.366	241.345	126.418	121.453	154.135	128.233	107.630	105.505	104.383	141.769	134.273	125.917	195.771	176.744	44.030
77.000	293.222	298.785	265.433	291.026	311.438	313.419	314.756	275.985	284.675	293.485	222.604	240.414	126.084	121.118	153.586	128.089	107.558	105.529	104.526	141.721	134.177	125.583	195.747	177.889	41.999
78.000	293.914	298.952	266.054	290.691	311.509	313.491	314.756	275.962	284.986	293.580	222.557	238.982	125.750	120.736	153.395	127.970	107.487	105.457	104.455	141.864	134.320	125.487	195.556	179.035	39.202
79.000	294.082	299.095	266.794	291.264	311.652	313.586	314.804	275.866	284.819	293.652	222.843	237.979	125.439	120.474	152.918	127.875	107.367	105.434	104.431	141.650	134.225	125.392	195.651	180.396	38.435
80.000	295.084	299.525	267.319	291.073	311.605	313.634	314.947	276.057	284.628	294.153	222.628	237.096	124.747	120.092	152.536	127.660	107.415	105.744	104.479	141.578	134.106	125.129	195.651	181.327	39.833
81.000	295.514	299.572	267.319	291.312	311.652	313.753	315.090	276.176	284.747	294.392	222.843	236.045	124.461	119.781	152.130	127.660	107.415	105.410	104.335	141.506	134.297	125.057	195.699	182.521	42.902
82.000	295.490	300.265	267.773	291.408	311.509	313.443	314.828	276.391	284.819	294.416	222.700	234.135	123.768	119.376	151.676	127.588	107.296	105.410	104.431	141.554	134.249	124.532	195.627	184.049	42.541
83.000	295.991	300.336	268.012	291.217	311.318	313.610	315.019	276.248	285.105	294.869	222.772	233.085	123.553	119.209	151.318	127.397	107.224	105.386	104.311	141.506	134.344	124.437	195.627	185.266	40.194
84.000	296.159	300.575	268.394	291.432	311.724	313.610	314.995	276.320	284.628	294.654	222.772	232.536	123.195	118.898	150.984	127.302	107.224	105.386	104.192	141.482	134.273	124.294	195.651	186.197	39.066
85.000	296.588	300.933	268.585	291.623	311.461	313.729	314.971	276.535	284.771	294.869	223.058	231.318	122.885	118.970	150.698	127.325	107.176	105.386	104.192	141.482	134.153	124.150	195.604	186.866	39.247
86.000	296.827	300.838	268.776	291.885	311.915	313.753	315.114	276.749	284.723	294.798	222.867	230.888	122.622	118.779	150.602	127.302	107.105	105.266	104.192	141.291	134.249	124.150	195.604	187.606	41.322
87.000	297.185	301.005	269.205	292.028	311.700	313.729	315.066	276.487	284.699	295.013	223.130	230.172	122.670	118.588	150.244	127.134	107.176	105.553	104.359	141.339	134.273	124.055	195.532	188.131	42.450
88.000	297.710	301.411	269.301	291.837	311.652	314.087	315.019	276.630	284.938	295.299	222.843	229.647	122.097	118.325	149.981	127.134	107.105	105.266	104.311	141.315	134.225	123.792	195.627	189.014	40.916
89.000	297.925	301.554	269.754	292.291	312.154	313.873	315.019	276.391	284.675	295.395	222.986	228.310	121.787	118.086	149.671	127.158	107.152	105.195	104.216	141.244	134.297	123.673	195.556	190.065	39.518
