-----------------------------------------------------
BloodHound 307 VOC Analyser V2017.1
RoboScientific Ltd 
Espace North
Wisbech Road
Littleport
Cambridgeshire, UK
CB6 1RA 
-----------------------------------------------------
Date = 24/03/2022
Time = 12:24:01
Data is protected by RoboScientific Limited
-----------------------------------------------------
Name of the experiment = "50a_Day 33"
-----------------------------------------------------
Repeat No. = 4/4
-----------------------------------------------------
Experimental Time (in sec) and Flow Profile :
-----------------------------------------------------
Baseline = 2.00
Absorb = 4.00
Pause = 1.00
Desorb = 5.00
Flush = 20.00
Wait = 5.00
Higher Flow (V) = 4.00
Medium Flow (V) = 3.00
Low Flow (V) = 1.00
-----------------------------------------------------
Total Profile Time = 37 in sec
-----------------------------------------------------
Acquired data point per second = 4
--------------------------------------------------
Total data point stored  = 128
-----------------------------------------------------
Acquired sensor responses from 24 sensors
-----------------------------------------------------

Data Points	 Sen-1	 Sen-2	 Sen-3	 Sen-4	 Sen-5	 Sen-6	 Sen-7	 Sen-8	 Sen-9	 Sen-10	 Sen-11	 Sen-12	 Sen-13	 Sen-14	 Sen-15	 Sen-16	 Sen-17	 Sen-18	 Sen-19	 Sen-20	 Sen-21	 Sen-22	 Sen-23	 Sen-24	Humidity (%r.h.)
0.000	306.997	308.167	279.375	294.058	312.798	314.231	315.162	278.277	284.962	303.535	223.464	239.913	112.166	111.330	139.978	124.819	106.388	104.693	103.929	139.883	134.273	115.198	194.744	179.250	42.360
1.000	307.498	308.477	279.352	294.082	312.488	314.660	315.639	278.444	284.795	303.512	223.607	240.533	111.975	111.235	139.692	124.747	106.126	104.622	103.906	139.859	134.273	115.293	194.696	178.868	39.427
2.000	307.833	308.788	279.710	294.487	312.774	314.326	315.568	278.182	284.842	303.679	223.273	240.509	112.166	111.235	139.525	124.699	106.317	104.693	104.025	139.907	134.273	115.126	194.696	178.462	38.164
3.000	307.689	308.573	280.044	294.010	312.703	314.637	315.663	278.110	284.675	304.037	223.631	241.297	112.023	111.115	139.405	124.580	106.245	104.670	104.001	139.811	134.297	115.031	194.696	178.057	39.202
4.000	307.689	308.597	280.354	294.296	312.774	314.350	315.591	278.277	284.747	304.037	224.037	241.441	111.736	111.115	139.167	124.556	106.269	104.670	103.906	139.859	134.344	115.055	194.625	177.484	42.902
5.000	307.546	308.525	280.665	294.034	312.631	314.278	315.424	278.373	284.723	303.965	223.917	241.870	111.951	110.972	138.928	124.604	106.197	104.550	103.929	139.764	134.320	114.935	194.601	177.221	43.623
6.000	307.689	308.668	280.856	294.249	312.607	314.398	315.353	278.182	284.890	304.180	223.989	241.870	111.736	111.068	138.809	124.556	106.269	104.717	103.953	139.811	134.177	114.983	194.625	177.364	40.691
7.000	308.000	308.119	280.856	294.392	312.583	314.446	315.544	278.277	284.771	303.774	223.703	241.297	111.927	110.996	138.713	124.699	106.317	104.646	103.834	139.716	134.225	114.983	194.649	177.961	38.390
8.000	307.570	308.167	280.521	294.344	312.703	314.446	315.568	278.468	284.914	303.893	223.846	240.366	112.118	111.211	138.713	124.676	106.126	104.598	103.810	139.764	134.225	114.983	194.553	178.462	38.525
9.000	307.761	308.167	280.784	294.034	312.798	314.374	315.472	278.301	284.914	303.679	223.512	239.602	112.094	111.378	139.000	124.628	106.221	104.622	103.882	139.692	134.225	115.031	194.744	179.393	41.232
10.000	305.684	306.949	280.139	294.153	312.822	314.565	315.663	278.301	284.938	303.082	222.939	244.640	113.455	112.452	139.119	124.676	106.293	104.646	103.953	139.716	133.891	115.747	195.102	174.762	43.623
11.000	280.402	290.906	277.728	292.673	312.058	313.777	315.210	277.800	285.630	294.249	221.482	285.368	140.527	129.211	141.435	125.917	106.603	105.004	104.049	140.002	133.198	125.702	196.654	133.843	38.299
12.000	237.979	248.698	271.211	290.071	311.127	312.989	314.851	276.057	286.347	266.794	219.978	301.148	183.261	172.566	148.286	128.853	107.678	105.696	104.168	141.435	132.888	153.968	198.230	117.155	45.293
13.000	238.576	250.871	261.828	284.938	310.506	312.607	314.875	273.479	286.227	244.998	218.832	309.910	180.348	167.027	156.976	133.461	108.394	106.317	104.526	144.443	132.673	174.547	199.280	108.227	50.888
14.000	262.688	276.606	251.611	276.749	308.788	311.318	314.207	269.922	286.347	226.782	218.236	315.496	155.305	141.172	167.290	141.291	109.683	107.320	104.813	147.522	132.697	191.330	200.235	103.810	44.436
15.000	282.169	293.795	242.181	267.367	307.570	310.244	313.586	265.959	285.583	223.535	217.305	319.650	137.066	125.129	177.866	151.008	110.877	108.418	105.457	151.581	133.342	194.243	201.023	99.513	32.614
16.000	297.686	304.634	235.950	258.343	305.994	309.074	312.894	261.828	284.962	237.358	216.946	321.345	122.885	114.338	186.150	160.701	112.882	109.826	105.792	155.830	134.010	181.256	201.787	97.913	29.952
17.000	307.355	312.058	233.968	250.083	303.965	307.475	312.416	257.054	284.246	251.300	216.206	324.234	111.999	107.200	187.606	169.128	114.983	111.497	106.412	160.724	134.822	167.767	202.097	95.789	39.833
18.000	314.278	316.451	236.332	242.610	301.840	305.398	311.652	251.945	283.147	263.404	216.135	325.212	104.001	101.972	181.661	176.481	117.060	113.264	107.176	166.287	135.824	154.804	202.360	94.070	52.106
19.000	319.411	320.557	240.199	235.472	299.453	303.225	311.103	245.929	282.479	274.768	215.681	325.738	98.797	98.367	175.287	183.094	119.280	115.436	108.203	171.682	136.541	143.703	202.980	93.712	50.662
20.000	323.661	323.732	245.189	228.215	296.922	300.408	309.957	239.746	281.118	284.198	215.753	327.098	95.025	95.717	168.459	189.587	121.858	118.063	109.301	177.722	137.591	133.962	202.909	92.661	38.119
21.000	326.430	325.929	249.319	222.366	294.082	297.376	308.167	233.729	280.187	291.241	215.323	326.788	93.043	93.401	163.112	196.391	124.676	120.999	110.710	184.001	138.618	127.421	203.004	92.828	28.283
22.000	327.695	327.337	253.568	217.328	291.241	293.700	306.711	228.310	279.256	296.182	215.132	328.984	90.871	91.682	158.337	201.739	127.970	124.532	112.237	190.160	139.644	121.906	203.530	91.682	33.742
23.000	329.605	328.817	256.911	220.814	287.970	290.500	305.398	222.557	278.062	300.742	215.562	328.173	89.677	90.274	154.374	198.015	131.503	128.543	113.909	196.344	140.862	117.322	203.744	91.778	47.459
24.000	331.420	328.937	259.966	226.329	283.888	286.060	302.915	218.737	277.227	303.846	215.037	328.626	88.340	90.107	150.721	191.808	134.559	132.411	115.938	200.593	142.008	113.956	203.434	90.608	53.775
25.000	331.754	330.369	262.449	230.960	280.211	281.620	300.933	219.143	275.198	306.520	215.657	329.557	87.242	89.367	147.785	187.940	138.665	136.588	118.015	199.662	143.249	111.784	203.649	90.536	43.894
26.000	332.088	330.512	264.383	230.769	278.397	279.877	299.835	219.095	275.412	306.543	215.323	330.178	87.170	89.271	147.117	188.060	140.193	138.498	119.304	199.423	143.703	111.951	203.649	91.420	31.306
27.000	331.802	330.584	264.287	229.647	279.423	280.211	299.763	219.119	275.245	306.329	215.586	329.247	87.409	88.674	146.066	189.253	139.811	138.403	119.686	199.781	143.631	112.333	203.625	90.656	29.456
28.000	332.375	330.250	264.574	228.859	279.638	280.330	299.429	219.286	275.341	306.161	215.609	329.223	87.290	88.722	146.376	190.351	139.477	138.212	119.877	199.972	143.345	112.452	203.721	91.157	40.239
29.000	332.016	330.560	265.266	227.666	280.068	280.474	299.286	218.976	275.603	305.612	215.681	329.892	87.385	88.364	145.995	191.521	139.262	138.164	120.092	200.044	143.177	113.049	203.625	91.730	52.467
30.000	333.115	330.321	266.460	230.960	278.349	278.803	298.021	220.265	275.126	307.856	215.132	330.250	86.884	88.340	145.422	187.725	140.146	139.620	121.166	198.039	143.631	110.948	203.530	91.277	50.617
31.000	332.589	331.205	267.630	235.544	274.768	275.269	296.206	221.291	274.099	307.737	215.586	329.271	87.075	88.030	143.870	182.927	143.941	143.225	122.885	197.060	144.443	110.757	203.673	91.921	37.848
32.000	331.133	331.611	269.587	237.812	272.237	273.431	295.442	220.313	274.768	305.302	215.562	328.889	89.032	88.531	142.413	181.327	146.663	144.896	124.126	197.848	143.798	113.741	203.100	91.921	28.193
33.000	329.343	330.799	269.826	237.072	272.954	274.243	295.180	221.100	276.702	298.594	216.015	327.266	90.369	89.104	142.390	181.494	146.496	144.371	123.864	197.490	142.246	119.543	202.789	92.566	34.013
34.000	326.335	329.343	269.945	235.090	274.434	275.723	296.015	227.069	278.588	290.071	216.421	324.902	93.115	90.680	142.103	183.882	144.443	142.819	123.243	191.187	140.456	127.875	202.360	94.834	47.729
35.000	324.090	328.412	269.874	230.363	276.773	278.182	297.090	233.920	279.566	279.590	216.875	323.040	96.051	91.014	142.509	187.869	142.032	140.432	121.858	183.977	139.000	138.498	201.429	96.409	53.234
36.000	319.984	326.478	268.823	225.971	279.829	280.760	298.522	239.984	281.357	268.370	217.734	320.987	99.203	92.590	144.109	193.288	139.023	137.878	120.474	177.484	137.806	151.629	200.521	98.367	44.210
37.000	316.117	324.735	267.558	219.668	282.431	283.291	299.907	244.974	282.002	254.332	218.283	318.050	103.739	95.072	145.016	199.137	136.302	135.323	118.994	172.064	136.636	165.714	200.020	101.208	32.253
38.000	310.315	322.372	265.768	217.710	285.439	285.702	301.387	249.247	283.267	239.937	219.000	315.735	108.800	97.054	147.117	200.856	133.509	132.745	117.776	167.409	135.872	179.441	199.662	104.073	30.494
39.000	304.252	319.196	263.691	224.132	287.898	288.782	303.010	253.019	283.816	225.111	219.238	312.345	114.601	100.014	148.883	194.338	130.644	130.166	116.272	163.661	135.299	193.073	199.041	106.508	39.833
40.000	295.251	315.782	261.518	231.605	290.333	291.217	304.275	255.979	283.792	221.005	220.002	309.432	123.625	103.500	151.485	187.296	128.352	128.042	115.055	160.581	134.750	198.540	198.779	109.277	50.391
41.000	284.341	312.631	259.083	238.814	292.625	292.792	305.350	258.343	284.413	231.509	219.931	306.376	135.275	106.961	154.613	180.110	126.060	125.702	113.718	158.027	134.559	187.367	198.301	112.309	48.993
42.000	271.975	308.024	256.170	245.475	294.798	295.347	306.663	260.754	284.556	241.178	220.480	304.037	148.644	111.378	158.027	173.091	123.983	123.362	112.428	155.878	134.464	178.009	198.230	114.840	39.202
43.000	257.197	303.177	252.470	251.062	296.302	297.066	307.284	262.187	284.866	248.722	220.718	300.814	163.160	116.200	161.751	167.433	122.169	121.381	111.354	154.064	134.201	170.322	197.848	117.657	31.125
44.000	244.186	296.755	249.104	256.314	298.092	299.071	308.238	263.691	284.675	255.311	220.933	298.641	175.502	121.763	165.595	162.109	120.545	119.567	110.542	152.488	134.273	163.589	197.657	120.593	34.600
45.000	232.416	289.283	245.165	261.041	299.835	301.005	309.361	265.624	284.628	260.659	221.029	295.729	187.319	129.331	169.677	157.716	119.161	117.704	109.778	151.414	134.153	158.337	197.537	122.909	45.157
46.000	223.344	280.020	241.894	264.932	300.718	302.413	310.148	266.341	284.914	265.553	220.647	293.556	195.771	138.809	174.380	154.016	117.824	116.320	109.038	150.220	134.177	153.825	197.299	125.153	49.805
47.000	221.100	269.802	238.934	268.346	302.007	304.061	310.626	267.773	284.580	268.823	221.482	290.739	198.683	149.671	178.415	150.411	116.726	114.887	108.442	149.313	134.034	150.077	197.084	127.851	43.578
48.000	227.379	257.651	235.544	270.757	302.986	305.398	311.342	268.585	284.795	271.903	221.363	288.567	192.023	162.276	182.211	147.952	115.842	113.503	107.916	148.406	134.082	146.663	197.060	129.856	35.006
49.000	235.233	244.210	232.965	273.526	303.893	306.424	311.915	269.444	284.938	274.959	221.673	286.943	184.383	175.120	185.672	145.135	114.864	112.333	107.320	147.594	134.034	143.822	196.582	131.838	32.750
50.000	242.109	230.530	231.318	276.129	305.039	307.689	312.154	269.993	284.675	277.561	221.458	283.816	177.078	187.678	188.561	142.246	113.789	111.139	107.057	147.069	134.225	141.053	196.654	134.177	39.698
51.000	248.435	221.339	230.888	278.373	305.708	308.573	312.297	270.781	284.771	279.925	221.864	282.097	171.467	198.349	190.160	140.432	113.121	110.089	106.818	146.424	134.225	139.214	196.606	136.230	47.098
52.000	253.330	229.957	232.058	279.948	306.161	309.384	312.631	271.330	284.938	281.882	222.127	279.877	166.287	190.304	188.967	138.880	112.739	109.397	106.293	145.923	134.177	137.472	196.558	138.451	46.240
53.000	257.937	239.793	233.706	281.261	306.663	309.742	312.703	271.760	284.842	282.622	222.031	278.110	161.918	180.205	186.723	137.543	111.855	108.728	106.126	145.493	134.106	136.397	196.463	140.122	39.879
54.000	261.399	248.650	235.639	282.264	307.284	310.483	313.109	272.166	284.914	283.864	222.199	276.558	157.836	170.178	184.216	136.517	111.426	108.322	105.839	145.111	134.201	135.156	196.344	141.793	33.878
55.000	264.622	257.364	237.860	283.482	307.713	310.817	313.443	272.548	284.890	285.153	221.888	274.792	154.661	161.966	182.020	135.466	111.044	107.892	105.672	144.705	134.297	134.297	196.439	143.130	36.585
56.000	267.773	263.929	240.462	283.911	307.952	310.960	313.634	272.858	285.105	285.917	221.984	273.455	151.796	155.687	179.847	134.702	110.686	107.582	105.696	144.514	134.153	133.485	196.200	144.658	43.894
57.000	270.709	269.253	242.467	285.129	308.668	311.772	314.111	273.526	284.604	286.251	222.413	271.760	149.170	150.554	177.675	134.153	110.351	107.391	105.577	144.180	134.153	132.673	196.224	146.042	46.962
58.000	273.073	273.574	244.210	285.559	309.026	312.154	313.777	273.741	284.795	286.872	222.222	270.781	146.735	145.851	175.860	133.580	110.041	107.105	105.290	143.774	134.058	131.909	196.153	147.260	42.495
59.000	274.840	277.227	245.905	285.702	309.170	311.987	313.777	273.765	284.604	287.540	222.628	269.420	144.562	142.294	173.807	132.983	109.922	106.866	105.147	143.607	134.106	131.790	196.009	148.812	36.495
60.000	276.869	280.044	247.385	286.490	309.026	312.273	314.302	274.004	284.771	288.233	222.222	268.059	142.867	139.167	172.112	132.339	109.802	106.818	105.171	143.464	134.082	130.883	196.009	150.077	35.096
61.000	278.492	283.076	249.008	286.967	309.575	312.345	314.087	274.243	285.081	288.543	222.700	266.388	141.244	136.517	170.608	132.076	109.444	106.460	104.908	143.345	134.058	130.453	196.033	151.342	40.059
62.000	280.068	285.105	250.154	287.254	309.528	312.416	314.064	274.434	285.344	289.283	222.533	264.980	139.620	134.774	169.152	131.766	109.397	106.341	104.884	143.082	134.225	130.214	195.818	152.870	45.834
63.000	281.214	286.538	251.730	287.469	309.766	312.607	314.493	274.505	285.033	289.737	222.461	263.714	138.069	132.745	167.791	131.336	109.038	106.436	104.932	143.082	134.201	129.522	195.962	154.183	44.436
64.000	282.861	288.400	252.661	287.755	309.957	312.512	314.374	274.601	284.914	290.071	222.485	262.115	136.732	131.145	166.669	131.145	108.895	106.293	104.765	142.915	134.273	129.068	195.962	155.735	39.833
65.000	283.911	289.713	253.544	287.994	310.220	313.061	314.469	275.102	284.747	290.047	222.509	260.277	135.681	129.784	165.666	130.525	108.752	106.341	104.813	142.891	134.177	128.686	195.866	157.358	35.322
66.000	285.010	291.288	254.857	288.543	310.029	312.774	314.374	275.174	284.914	290.500	222.175	258.988	134.392	128.591	164.640	130.501	108.871	106.126	104.646	142.604	134.225	128.280	195.795	159.006	37.532
67.000	286.084	291.957	255.693	288.185	309.814	312.942	315.114	275.675	285.129	291.121	222.533	257.388	133.676	127.158	163.446	130.190	108.704	106.150	104.789	142.581	134.129	127.898	195.747	160.510	43.082
68.000	286.967	292.912	256.863	288.662	310.124	313.156	314.756	275.412	284.890	291.193	222.748	256.170	132.769	126.466	162.539	129.880	108.537	105.983	104.670	142.509	134.082	127.922	195.651	162.037	44.887
69.000	287.922	293.556	257.436	289.259	310.459	313.061	314.708	275.365	285.033	291.599	222.915	254.475	132.076	125.774	161.727	129.737	108.370	105.911	104.550	142.366	134.177	127.540	195.651	163.470	41.864
70.000	288.304	294.440	258.391	289.331	310.817	313.133	314.756	275.150	284.914	291.551	222.628	253.258	131.408	125.225	161.083	129.641	108.418	105.887	104.574	142.294	134.177	127.325	195.556	164.664	38.074
71.000	289.116	295.084	258.725	289.235	310.865	313.156	314.780	275.580	284.914	291.718	222.891	252.088	130.763	124.508	160.390	129.426	108.227	105.792	104.598	142.151	134.201	127.206	195.651	166.168	36.901
72.000	289.020	295.347	259.751	289.593	310.530	313.109	314.684	275.412	284.771	292.148	222.986	250.823	130.190	123.840	159.698	129.140	108.251	105.744	104.622	142.079	134.201	127.087	195.627	167.099	40.194
73.000	290.095	296.254	260.110	289.880	310.936	313.491	314.637	275.723	284.866	292.076	222.604	249.558	129.570	123.506	159.125	129.116	108.107	105.648	104.550	142.055	134.273	126.920	195.556	168.650	44.436
74.000	290.524	296.517	260.659	289.617	310.626	313.204	314.732	275.794	284.819	292.243	222.700	247.958	129.068	122.957	158.695	128.973	108.036	105.672	104.550	141.864	134.153	126.705	195.556	169.844	43.172
75.000	291.121	297.185	260.969	289.951	311.056	313.276	314.660	275.723	285.177	292.697	222.772	247.122	128.495	122.479	158.170	128.925	107.988	105.577	104.502	142.032	134.106	126.418	195.651	171.229	39.653
76.000	291.599	297.710	261.494	290.047	310.674	313.228	314.589	276.129	284.986	292.888	222.939	245.284	127.898	122.026	157.597	128.567	107.964	105.672	104.670	141.888	134.129	126.299	195.580	172.637	37.442
77.000	292.315	298.068	262.640	290.047	311.151	313.395	314.780	275.842	284.723	292.864	222.676	243.828	127.182	121.429	157.072	128.662	107.821	105.625	104.431	141.817	134.106	125.917	195.508	174.237	38.660
78.000	292.888	298.331	263.070	290.286	311.103	313.491	314.732	276.320	285.033	293.580	223.034	242.586	127.039	121.166	156.666	128.495	107.892	105.553	104.407	141.793	134.153	125.845	195.532	175.693	42.586
79.000	292.840	298.641	263.476	290.286	310.721	313.109	314.493	276.033	285.010	293.485	222.604	241.106	126.275	120.665	155.950	128.376	107.701	105.481	104.407	141.673	134.225	125.535	195.508	176.767	43.939
80.000	293.962	299.167	263.595	290.644	310.984	313.538	315.090	276.200	284.914	293.795	223.130	240.533	126.036	120.617	155.663	128.185	107.654	105.505	104.431	141.673	134.153	125.416	195.484	178.080	41.413
81.000	294.034	299.453	263.834	290.500	311.318	313.658	314.732	276.033	284.938	293.891	222.628	239.340	125.750	120.283	155.281	128.352	107.797	105.505	104.335	141.506	134.106	125.368	195.436	179.059	39.066
82.000	294.225	299.763	264.550	290.620	311.127	313.467	314.923	276.320	285.224	293.795	222.819	238.003	125.225	119.949	154.852	128.113	107.630	105.386	104.216	141.530	134.201	125.129	195.508	179.990	38.435
83.000	294.774	299.477	264.741	290.811	311.438	313.634	314.708	276.415	284.986	294.105	223.034	237.454	124.819	119.734	154.708	128.066	107.678	105.457	104.359	141.554	134.177	124.962	195.413	181.112	40.465
84.000	294.893	299.954	265.051	290.859	311.223	313.658	314.995	276.248	285.010	294.559	222.891	235.950	124.723	119.590	154.255	127.946	107.701	105.410	104.359	141.554	134.129	124.795	195.413	181.805	43.172
85.000	295.633	300.312	265.338	290.668	311.199	313.729	315.353	276.606	285.033	294.440	222.676	235.878	124.413	119.185	153.920	128.018	107.654	105.386	104.359	141.459	134.177	124.699	195.460	182.736	42.450
86.000	295.586	300.718	265.696	291.169	311.438	313.729	315.019	276.487	284.866	294.249	223.153	235.090	123.983	119.113	153.753	127.898	107.606	105.434	104.431	141.578	134.225	124.676	195.460	183.356	39.879
87.000	295.299	300.480	265.959	291.002	311.461	313.682	314.780	276.200	284.795	294.344	222.795	234.279	124.198	118.970	153.467	127.875	107.415	105.314	104.311	141.411	134.225	124.580	195.341	184.216	38.841
88.000	295.991	300.432	265.815	290.954	311.509	313.705	314.828	276.487	285.177	294.798	222.867	233.443	123.601	118.874	153.204	127.898	107.606	105.314	104.288	141.387	134.153	124.437	195.436	184.813	39.021
89.000	295.872	300.838	266.269	291.336	311.318	313.371	314.804	276.582	285.010	294.822	222.819	232.727	123.434	118.827	153.133	127.731	107.511	105.362	104.288	141.387	134.153	124.389	195.389	185.457	41.819
