-----------------------------------------------------
BloodHound 307 VOC Analyser V2017.1
RoboScientific Ltd 
Espace North
Wisbech Road
Littleport
Cambridgeshire, UK
CB6 1RA 
-----------------------------------------------------
Date = 31/03/2022
Time = 12:32:26
Data is protected by RoboScientific Limited
-----------------------------------------------------
Name of the experiment = "36b_Day 43"
-----------------------------------------------------
Repeat No. = 2/4
-----------------------------------------------------
Experimental Time (in sec) and Flow Profile :
-----------------------------------------------------
Baseline = 2.00
Absorb = 4.00
Pause = 1.00
Desorb = 5.00
Flush = 20.00
Wait = 5.00
Higher Flow (V) = 4.00
Medium Flow (V) = 3.00
Low Flow (V) = 1.00
-----------------------------------------------------
Total Profile Time = 37 in sec
-----------------------------------------------------
Acquired data point per second = 4
--------------------------------------------------
Total data point stored  = 128
-----------------------------------------------------
Acquired sensor responses from 24 sensors
-----------------------------------------------------

Data Points	 Sen-1	 Sen-2	 Sen-3	 Sen-4	 Sen-5	 Sen-6	 Sen-7	 Sen-8	 Sen-9	 Sen-10	 Sen-11	 Sen-12	 Sen-13	 Sen-14	 Sen-15	 Sen-16	 Sen-17	 Sen-18	 Sen-19	 Sen-20	 Sen-21	 Sen-22	 Sen-23	 Sen-24	Humidity (%r.h.)
0.000	313.133	309.695	291.217	304.156	314.493	315.639	315.782	296.994	286.896	311.223	228.907	281.214	106.293	109.850	128.185	114.577	104.264	103.524	103.619	122.049	132.267	107.701	189.444	137.806	45.744
1.000	312.894	309.647	291.145	303.893	314.422	315.568	315.830	296.899	286.991	311.270	228.979	281.620	106.412	109.731	128.257	114.601	104.097	103.476	103.548	121.906	132.339	107.701	189.420	137.591	47.323
2.000	313.443	309.766	290.954	304.061	314.780	315.806	315.782	296.851	286.633	311.318	228.859	281.787	106.221	109.874	128.280	114.696	104.144	103.380	103.428	121.954	132.434	107.725	189.253	137.400	39.157
3.000	313.300	309.862	291.264	304.228	314.637	315.663	315.782	296.708	286.538	311.270	229.026	281.858	106.293	109.731	128.137	114.649	104.311	103.595	103.476	122.026	132.243	107.487	189.277	137.257	33.652
4.000	313.300	309.814	291.360	304.204	314.541	315.663	315.711	297.042	286.752	311.342	229.098	282.288	106.365	109.588	128.089	114.553	104.168	103.452	103.524	121.978	132.411	107.725	189.373	137.185	40.149
5.000	313.324	309.504	291.050	304.108	314.851	315.759	315.687	297.185	286.728	311.318	229.193	282.049	106.126	109.683	127.970	114.649	104.192	103.428	103.619	121.906	132.220	107.630	189.396	137.114	48.226
6.000	313.252	310.244	291.623	304.275	314.684	315.663	315.496	296.827	286.442	311.318	228.955	282.670	106.317	109.659	127.946	114.673	104.288	103.404	103.667	121.906	132.291	107.558	189.420	136.875	43.488
7.000	313.634	309.910	291.408	304.371	314.851	315.711	315.806	296.899	286.681	311.127	228.835	282.264	106.341	109.731	127.922	114.553	104.288	103.404	103.548	122.097	132.411	107.654	189.396	136.899	34.780
8.000	313.443	309.528	291.288	304.204	314.899	315.687	315.711	297.090	286.943	311.509	229.361	282.479	106.269	109.731	127.994	114.434	104.120	103.452	103.476	121.835	132.387	107.630	189.325	136.779	35.953
9.000	313.634	309.623	291.264	304.204	315.066	315.735	315.926	297.042	286.776	311.390	228.931	282.384	106.269	109.588	127.660	114.577	104.144	103.524	103.571	121.906	132.315	107.534	189.325	136.636	45.699
10.000	311.963	308.358	291.073	303.870	314.708	315.663	315.687	296.946	287.087	310.793	228.812	279.041	107.487	111.664	128.113	114.840	104.168	103.285	103.428	121.954	131.790	108.203	189.587	141.697	47.413
11.000	295.729	267.152	287.636	302.652	314.565	315.568	315.735	295.275	288.352	305.517	226.209	280.020	123.983	154.923	131.551	116.153	104.502	103.619	103.619	123.601	130.859	113.956	191.664	139.740	41.413
12.000	266.627	263.142	277.704	299.358	313.801	315.400	315.759	291.479	288.662	289.092	224.538	301.053	151.581	154.422	140.981	118.946	104.908	103.739	103.643	127.087	130.405	129.784	193.622	118.206	48.541
13.000	233.658	289.951	263.356	294.153	313.037	314.923	315.019	287.015	288.782	275.317	223.225	312.560	184.574	127.827	155.353	124.174	105.505	104.025	103.786	131.479	130.238	143.583	195.269	107.463	42.089
14.000	253.616	305.326	246.955	286.681	312.464	314.087	314.923	282.121	288.280	259.083	221.745	318.074	165.762	113.550	171.802	131.647	106.126	104.407	104.144	136.421	130.453	159.435	196.105	100.874	30.133
15.000	279.614	314.207	234.350	278.588	312.010	313.825	314.446	277.275	287.636	240.271	221.172	322.992	141.124	104.837	186.579	140.599	106.938	105.219	104.431	141.435	130.883	178.988	197.251	97.149	35.637
16.000	296.039	319.459	233.873	269.253	310.602	312.846	314.231	271.593	287.278	224.514	220.122	324.783	123.506	99.012	185.457	149.767	108.083	106.174	104.908	147.570	131.790	194.338	198.134	94.428	50.662
17.000	308.406	323.112	241.990	260.086	309.742	311.175	313.156	265.242	286.156	245.284	219.787	326.740	110.853	95.598	173.831	158.600	109.110	107.343	105.457	153.539	132.578	172.781	198.659	93.401	50.662
18.000	315.782	325.738	251.539	250.417	308.167	309.193	312.464	258.367	285.392	262.831	219.358	328.268	103.643	92.995	162.109	167.886	110.495	109.253	106.532	160.629	133.604	155.043	199.065	92.303	35.186
19.000	320.724	327.648	260.611	242.014	306.830	306.949	311.175	251.873	283.959	276.153	219.310	329.605	98.462	91.205	153.753	177.197	112.070	111.736	107.630	167.719	134.678	142.223	199.280	90.680	29.230
20.000	324.735	329.056	267.725	232.894	304.968	304.061	309.575	244.544	283.004	286.299	219.071	329.844	94.094	90.656	145.827	185.696	113.813	114.649	109.349	175.025	135.753	132.602	199.710	90.346	42.856
21.000	328.173	329.295	273.240	224.896	303.297	300.527	307.379	237.955	281.858	293.079	218.904	330.536	91.826	89.391	139.573	193.455	115.389	118.063	111.641	182.163	137.018	125.153	199.853	89.558	54.497
22.000	329.247	330.393	277.657	219.501	300.933	296.779	304.801	231.438	280.808	298.785	218.880	331.276	90.298	88.316	134.488	199.614	117.370	121.715	114.147	188.752	138.116	119.567	199.781	89.653	44.481
23.000	330.751	330.775	281.429	223.177	298.474	292.458	301.912	226.400	279.304	303.153	218.976	331.205	88.627	88.507	131.265	194.959	119.758	125.774	116.964	194.052	139.549	115.436	199.901	88.340	29.411
24.000	331.563	331.348	284.628	230.244	296.206	288.853	299.190	222.557	277.728	306.281	218.307	331.372	88.459	87.194	127.564	188.251	122.360	129.617	120.163	196.726	141.196	111.593	199.972	88.531	32.750
25.000	331.587	331.849	286.991	234.756	293.628	284.842	294.989	223.679	276.487	308.811	218.904	332.016	87.194	87.218	124.580	183.643	125.153	133.795	123.959	195.054	142.604	109.778	200.163	88.650	49.128
26.000	332.016	332.733	288.113	234.446	292.124	283.219	292.601	223.655	275.747	308.597	218.761	332.207	87.242	86.979	123.888	183.619	126.967	135.347	126.299	194.959	143.082	109.946	200.259	88.006	53.279
27.000	331.945	332.303	288.686	234.279	291.623	283.434	292.028	223.297	276.009	308.525	218.259	331.730	87.099	87.314	123.339	184.622	127.087	135.132	126.800	195.436	142.748	110.351	200.378	88.340	38.074
28.000	331.563	332.351	288.925	232.822	291.861	283.553	292.172	223.106	276.176	307.522	218.498	332.327	87.481	86.884	123.959	186.006	127.087	134.678	127.063	195.771	142.604	110.614	200.354	88.412	28.328
29.000	332.780	332.828	288.925	230.984	291.718	284.222	292.243	222.891	276.940	307.403	218.474	332.255	87.600	85.833	123.840	187.319	127.063	134.631	127.254	195.986	142.342	110.901	200.521	88.841	38.841
30.000	332.924	332.900	289.450	234.899	290.715	282.646	290.596	223.822	275.985	308.931	218.641	332.494	86.645	86.836	123.148	183.237	128.066	136.135	128.615	194.816	142.724	109.373	200.402	88.054	54.633
31.000	332.040	332.828	290.859	239.149	288.567	279.184	287.851	223.798	275.794	308.310	218.570	332.040	88.364	86.669	122.288	179.322	130.166	139.238	131.312	194.625	143.249	110.375	200.498	88.794	46.917
32.000	328.817	332.494	291.527	239.578	287.612	278.922	287.612	224.944	277.967	302.962	218.832	330.130	90.322	87.290	121.524	179.107	131.074	139.286	131.432	194.577	140.981	115.986	200.211	90.011	30.990
33.000	325.594	331.443	291.599	236.284	288.996	281.572	290.071	234.326	280.498	292.100	219.405	328.674	94.261	87.743	121.644	181.661	129.880	137.042	129.092	185.577	138.403	125.893	199.399	91.563	31.351
34.000	321.130	330.321	291.623	230.626	290.882	284.914	292.745	243.923	282.622	276.654	220.050	324.878	98.367	89.558	122.312	187.319	127.851	133.747	126.060	176.529	136.206	142.008	198.134	94.905	47.233
35.000	315.114	328.698	289.856	223.368	293.365	288.519	296.182	252.207	284.437	257.961	221.077	320.868	105.386	90.966	123.553	195.150	125.272	129.904	122.909	167.504	134.488	161.870	197.227	99.704	52.963
36.000	306.878	326.549	288.280	220.241	295.824	292.339	299.381	258.725	285.392	236.308	222.151	315.353	114.076	92.590	125.630	198.421	122.837	126.514	119.686	160.366	133.389	184.622	196.320	104.670	40.194
37.000	292.052	325.069	285.344	229.384	298.140	295.275	301.697	264.120	286.060	227.021	222.533	309.170	128.161	94.929	128.639	188.656	120.211	123.291	116.893	154.350	132.673	190.733	195.532	110.710	30.404
38.000	271.211	321.011	282.384	240.151	300.480	298.498	304.347	268.728	286.585	245.595	223.416	302.604	147.308	97.913	132.196	178.057	118.063	120.140	114.601	149.814	132.148	172.399	194.840	117.155	37.713
39.000	245.165	317.573	277.800	249.820	302.413	301.554	306.758	272.572	286.681	260.301	223.631	295.013	172.828	101.972	136.469	168.770	116.177	117.394	112.715	146.257	132.052	158.838	194.481	124.389	48.948
40.000	222.628	312.822	273.216	258.701	304.061	304.204	308.382	275.651	286.967	270.566	224.132	288.113	197.012	106.723	141.459	160.223	114.649	114.410	110.781	143.154	132.029	148.310	194.052	132.029	46.556
41.000	234.159	306.520	267.009	265.529	305.708	306.687	309.647	277.776	287.110	277.919	224.849	280.712	185.195	112.858	147.785	152.775	113.097	111.999	109.420	140.671	131.981	140.933	193.694	139.047	36.901
42.000	247.863	298.498	260.539	271.306	306.806	308.835	311.032	279.686	287.230	283.864	225.087	273.288	171.515	120.235	155.448	146.520	111.688	110.160	108.179	138.498	131.742	135.060	193.216	145.804	35.006
43.000	259.775	289.164	252.446	275.985	307.952	310.053	311.867	281.834	287.397	288.233	225.254	265.935	159.937	129.641	162.610	141.888	110.686	108.370	107.248	136.851	131.909	131.121	193.145	152.440	42.315
44.000	269.325	277.346	245.117	280.498	308.835	311.438	312.345	283.171	287.492	291.503	225.374	259.298	150.841	141.268	171.086	138.212	109.802	107.367	106.603	135.371	131.742	128.066	193.001	159.579	45.789
45.000	277.394	265.075	237.836	283.434	309.766	312.488	313.419	284.604	287.469	293.771	225.851	252.589	142.055	154.565	179.298	134.655	108.895	106.627	106.102	134.201	132.005	125.750	192.739	166.096	41.548
46.000	283.458	249.581	231.414	286.299	310.387	312.942	313.682	285.678	287.325	295.275	226.138	246.287	135.872	169.390	186.866	132.124	108.370	105.815	105.553	132.792	131.742	123.577	192.428	172.661	37.758
47.000	288.089	233.085	227.618	288.591	310.721	313.634	313.849	286.705	287.134	296.922	226.209	240.366	130.811	185.290	192.309	129.761	107.845	105.481	105.266	131.647	131.838	121.835	192.237	178.009	39.021
48.000	292.554	225.469	227.451	290.453	311.247	313.825	314.398	288.185	287.325	298.450	226.544	234.875	127.206	195.532	192.667	127.946	107.200	104.932	104.932	130.739	131.933	120.665	191.903	183.882	43.217
49.000	295.227	239.913	231.079	292.434	312.034	314.326	314.756	289.044	286.919	299.381	226.281	229.934	124.508	180.611	189.086	126.275	106.890	104.741	104.765	129.784	131.981	119.543	191.545	189.205	42.315
50.000	297.448	251.563	235.592	293.962	312.106	314.374	314.660	289.689	287.015	300.885	226.329	225.063	121.930	167.719	183.595	124.771	106.579	104.574	104.431	129.092	132.172	118.182	191.712	194.290	39.743
51.000	299.214	261.327	240.581	295.036	312.798	314.756	314.923	290.119	286.872	301.960	227.021	220.360	120.402	157.621	178.176	123.553	106.365	104.335	104.431	128.304	132.052	117.251	191.450	198.731	39.608
52.000	300.336	269.229	245.451	296.135	312.870	314.875	314.780	290.668	286.967	302.461	227.021	218.427	118.779	150.077	173.783	122.766	106.174	104.192	104.192	127.803	132.076	116.391	191.497	201.285	40.781
53.000	301.888	275.293	249.199	296.970	313.204	315.162	315.138	291.288	286.991	303.177	226.735	220.026	117.585	144.371	169.605	121.763	105.959	104.049	104.288	127.397	132.076	115.747	191.402	200.187	40.239
54.000	303.225	279.829	253.043	297.830	313.586	315.066	315.186	291.790	286.776	303.726	226.735	222.437	116.654	139.716	165.857	121.142	105.648	103.953	104.216	126.753	132.076	115.174	191.330	197.442	40.285
55.000	303.750	283.315	255.908	298.474	313.443	315.257	315.377	292.267	287.015	304.156	227.021	225.135	115.675	135.872	162.682	120.641	105.625	103.834	103.977	126.347	132.220	114.720	191.235	194.553	41.638
56.000	304.753	286.585	258.892	298.713	313.419	315.400	315.424	292.673	287.039	304.562	227.021	227.761	114.720	132.864	160.199	119.925	105.457	103.762	104.025	125.965	132.172	114.219	191.211	191.617	41.593
57.000	305.207	289.283	261.375	299.429	313.610	315.162	315.186	292.936	286.896	304.992	227.451	230.363	114.434	130.381	157.716	119.638	105.410	103.739	103.906	125.630	132.220	114.004	191.139	188.967	39.653
58.000	305.923	291.575	263.547	299.477	313.753	315.305	315.400	293.652	286.872	305.398	227.284	233.347	113.646	127.946	155.496	119.280	105.457	103.715	103.953	125.320	132.243	113.527	191.187	186.579	39.157
59.000	306.066	293.127	265.362	299.668	313.705	315.615	315.782	294.034	286.872	305.708	227.379	234.923	113.479	126.227	153.443	118.946	105.195	103.667	103.977	125.105	132.291	113.288	190.948	184.288	41.367
60.000	306.687	294.774	267.152	300.098	313.992	315.568	315.544	293.891	286.776	305.827	227.021	237.239	113.049	124.485	151.772	118.636	105.147	103.691	103.882	124.771	132.243	112.858	190.948	182.211	43.488
61.000	307.236	296.230	268.967	300.432	313.920	315.424	315.639	294.058	286.848	306.305	227.498	239.196	112.309	123.243	150.316	118.325	104.884	103.643	103.834	124.699	132.267	112.643	190.948	180.086	41.052
62.000	307.689	297.257	270.113	300.862	314.135	315.544	315.448	294.296	286.752	306.376	227.546	240.987	112.166	122.145	149.074	118.063	104.980	103.476	103.762	124.532	132.363	112.596	190.924	178.486	38.796
63.000	307.761	298.426	271.688	300.766	313.968	315.377	315.472	294.607	286.681	306.758	227.594	242.682	111.808	121.071	147.761	117.919	104.932	103.619	103.715	124.413	132.220	112.357	190.733	176.815	38.931
64.000	308.286	299.286	272.643	300.694	313.849	315.472	315.615	294.535	286.633	307.021	227.451	243.900	111.474	120.354	146.639	117.609	104.956	103.691	103.786	124.246	132.291	112.023	190.709	175.239	43.623
65.000	308.597	299.787	273.359	301.076	314.255	315.520	315.544	294.965	286.538	306.782	227.666	245.833	111.259	119.471	145.732	117.537	104.908	103.762	103.667	124.031	132.315	111.832	190.781	173.879	43.623
66.000	308.811	300.527	274.481	301.291	314.040	315.329	315.591	294.917	286.967	307.307	227.355	247.361	111.139	118.922	144.538	117.490	104.956	103.619	103.739	123.983	132.267	111.641	190.733	172.208	39.518
67.000	308.573	301.291	275.054	301.196	314.135	315.400	315.591	295.060	286.848	307.689	227.833	248.937	110.710	118.182	144.085	117.299	104.670	103.428	103.834	123.744	132.434	111.617	190.590	170.727	37.758
68.000	309.241	301.626	275.842	301.387	314.040	315.782	316.069	295.180	286.991	307.856	227.713	250.250	110.542	117.704	143.345	117.179	104.861	103.524	103.691	123.768	132.339	111.330	190.614	169.080	41.322
69.000	309.002	302.389	276.511	301.673	314.374	315.615	315.663	295.036	286.490	307.594	227.880	251.300	110.280	116.869	142.294	117.132	104.717	103.500	103.715	123.625	132.291	111.115	190.566	167.791	44.571
70.000	309.814	302.867	277.251	301.458	314.064	315.520	315.615	295.347	287.110	308.095	227.785	252.518	110.137	116.773	141.745	116.797	104.693	103.452	103.834	123.768	132.243	111.020	190.590	166.645	41.999
71.000	309.695	303.368	278.874	301.888	313.968	315.353	315.329	295.108	286.943	308.262	227.833	253.497	109.993	116.296	141.053	116.750	104.717	103.524	103.595	123.530	132.363	111.044	190.518	165.618	37.713
72.000	309.862	303.464	278.707	302.007	314.231	315.424	315.782	295.514	286.991	308.191	227.952	254.738	109.755	115.962	140.456	116.797	104.502	103.571	103.834	123.458	132.506	110.948	190.566	164.664	38.254
73.000	309.742	303.679	279.447	302.031	314.326	315.759	315.496	295.180	286.681	308.047	227.809	255.621	109.707	115.604	139.811	116.511	104.717	103.500	103.834	123.482	132.315	110.614	190.447	163.756	43.849
74.000	309.695	303.965	279.614	302.151	314.183	315.496	315.663	295.204	286.728	308.573	227.904	256.505	109.373	115.389	139.310	116.511	104.622	103.667	103.858	123.553	132.339	110.614	190.447	162.992	44.571
75.000	310.005	304.466	280.187	302.437	314.422	315.639	315.591	295.442	286.681	308.811	227.737	257.173	109.468	115.031	139.023	116.535	104.622	103.571	103.667	123.243	132.243	110.423	190.471	162.061	39.788
76.000	310.435	304.610	280.879	302.485	314.422	315.687	315.615	295.657	286.800	308.692	227.737	257.794	109.373	114.959	138.665	116.391	104.502	103.404	103.691	123.243	132.267	110.351	190.351	161.369	36.269
77.000	310.005	304.681	280.927	302.604	314.350	315.615	315.568	295.514	286.561	308.477	227.761	258.725	109.253	114.649	138.212	116.248	104.431	103.715	103.762	123.267	132.220	110.208	190.351	160.486	40.239
78.000	309.838	304.777	281.500	302.366	314.111	315.496	315.568	295.609	286.633	308.764	228.024	259.751	109.015	114.386	137.734	116.344	104.598	103.595	103.715	123.219	132.243	110.065	190.328	159.793	45.112
79.000	310.411	305.469	281.548	302.413	314.278	315.424	315.353	295.466	286.681	308.835	227.713	260.324	109.015	114.123	137.472	116.415	104.502	103.571	103.524	123.195	132.243	110.137	190.351	159.077	43.217
80.000	310.554	305.421	282.002	302.628	314.517	315.735	315.663	295.705	286.728	309.002	228.095	261.041	108.967	114.004	137.281	116.200	104.431	103.404	103.571	123.171	132.458	110.184	190.375	158.504	37.036
81.000	310.674	305.421	282.622	302.819	314.255	315.448	315.687	296.135	286.800	308.811	227.904	261.279	108.824	113.861	136.803	116.105	104.502	103.476	103.762	123.076	132.220	109.993	190.351	157.812	37.352
82.000	310.650	305.684	283.004	302.580	314.278	315.329	315.496	295.872	286.752	308.979	228.239	262.282	108.585	113.813	136.708	116.081	104.502	103.500	103.667	123.100	132.387	109.993	190.304	157.263	43.488
83.000	310.626	306.066	282.956	302.962	314.493	315.496	315.591	295.800	286.728	309.122	228.167	262.807	108.513	113.622	136.374	116.033	104.502	103.452	103.619	122.981	132.434	109.898	190.375	156.570	45.744
84.000	310.960	306.185	283.147	302.557	314.326	315.711	315.926	295.824	286.538	309.241	228.071	263.356	108.513	113.431	136.087	116.009	104.407	103.428	103.619	123.004	132.339	109.659	190.232	155.854	40.510
85.000	311.199	306.329	283.577	302.748	314.493	315.615	315.926	296.039	286.609	309.146	228.215	264.216	108.513	113.288	135.848	116.057	104.526	103.548	103.595	122.909	132.482	109.755	190.280	155.425	35.773
86.000	310.960	306.329	283.601	302.509	314.684	315.591	315.544	295.872	286.824	309.384	228.024	264.717	108.585	113.169	135.466	116.057	104.431	103.524	103.571	123.004	132.339	109.707	190.280	154.637	39.021
87.000	310.936	306.925	284.055	302.652	314.231	315.377	315.639	295.824	286.585	309.361	228.262	265.553	108.322	113.025	135.204	115.962	104.479	103.476	103.643	122.957	132.458	109.611	190.208	153.777	45.699
88.000	311.342	306.520	284.413	302.724	314.302	315.520	315.878	296.254	286.442	309.265	228.000	266.030	108.274	112.858	134.965	115.842	104.383	103.404	103.595	122.790	132.315	109.492	190.160	153.109	44.300
89.000	311.247	306.687	284.461	302.795	314.446	315.448	315.711	295.991	286.800	309.456	227.857	266.985	108.131	112.619	134.750	115.842	104.526	103.500	103.571	122.790	132.291	109.468	190.208	152.249	38.029
