-----------------------------------------------------
BloodHound 307 VOC Analyser V2017.1
RoboScientific Ltd 
Espace North
Wisbech Road
Littleport
Cambridgeshire, UK
CB6 1RA 
-----------------------------------------------------
Date = 31/03/2022
Time = 12:27:56
Data is protected by RoboScientific Limited
-----------------------------------------------------
Name of the experiment = "36b_Day 41"
-----------------------------------------------------
Repeat No. = 3/4
-----------------------------------------------------
Experimental Time (in sec) and Flow Profile :
-----------------------------------------------------
Baseline = 2.00
Absorb = 4.00
Pause = 1.00
Desorb = 5.00
Flush = 20.00
Wait = 5.00
Higher Flow (V) = 4.00
Medium Flow (V) = 3.00
Low Flow (V) = 1.00
-----------------------------------------------------
Total Profile Time = 37 in sec
-----------------------------------------------------
Acquired data point per second = 4
--------------------------------------------------
Total data point stored  = 128
-----------------------------------------------------
Acquired sensor responses from 24 sensors
-----------------------------------------------------

Data Points	 Sen-1	 Sen-2	 Sen-3	 Sen-4	 Sen-5	 Sen-6	 Sen-7	 Sen-8	 Sen-9	 Sen-10	 Sen-11	 Sen-12	 Sen-13	 Sen-14	 Sen-15	 Sen-16	 Sen-17	 Sen-18	 Sen-19	 Sen-20	 Sen-21	 Sen-22	 Sen-23	 Sen-24	Humidity (%r.h.)
0.000	314.732	308.597	293.246	304.156	314.684	315.902	315.997	297.328	286.728	312.846	228.071	282.742	104.813	110.805	125.893	114.267	104.049	103.404	103.524	121.620	132.315	106.293	190.304	136.326	38.344
1.000	315.090	308.501	293.365	304.586	314.708	315.687	315.902	297.281	286.538	312.583	227.833	282.933	104.670	110.662	125.821	114.338	104.240	103.428	103.571	121.739	132.267	106.365	190.280	136.326	47.459
2.000	314.613	308.740	293.365	304.466	314.828	315.711	315.830	297.185	286.824	312.703	228.119	282.909	104.574	110.590	125.702	114.100	103.977	103.476	103.476	121.667	132.339	106.245	190.304	136.111	45.699
3.000	314.732	308.907	293.532	304.419	314.851	315.615	315.663	297.090	286.872	312.488	227.785	283.267	104.765	110.566	125.702	114.267	104.240	103.452	103.476	121.691	132.339	106.269	190.256	136.135	36.765
4.000	314.947	308.668	293.843	304.443	314.995	315.830	316.069	297.018	286.633	312.679	228.095	283.243	104.526	110.566	125.750	114.243	104.073	103.380	103.404	121.644	132.267	106.269	190.304	135.992	34.013
5.000	314.398	308.907	293.771	304.395	314.541	315.568	315.830	297.042	286.848	312.703	227.976	283.004	104.526	110.614	125.607	114.362	104.216	103.428	103.548	121.620	132.315	106.078	190.256	136.015	42.811
6.000	315.042	308.525	293.485	304.347	314.923	315.663	315.878	297.185	286.490	312.655	227.857	283.076	104.526	110.686	125.535	114.243	104.049	103.357	103.524	121.691	132.411	106.221	190.328	135.920	48.496
7.000	315.042	308.955	293.485	304.275	314.780	315.591	315.615	297.304	286.991	312.870	228.095	283.147	104.574	110.614	125.559	114.123	104.192	103.404	103.619	121.739	132.339	106.174	190.304	135.777	42.135
8.000	315.257	308.644	293.891	304.586	315.257	315.950	315.902	297.233	286.609	312.583	227.928	283.243	104.813	110.542	125.535	114.386	104.216	103.357	103.380	121.572	132.387	106.317	190.399	135.824	33.787
9.000	314.637	308.549	293.556	304.443	314.708	315.878	315.806	297.137	286.609	313.109	227.904	283.267	104.741	110.542	125.487	114.147	104.192	103.500	103.500	121.572	132.076	106.030	190.256	135.824	37.532
10.000	314.302	307.140	293.556	304.371	314.493	315.496	315.830	297.137	287.182	312.225	227.666	280.307	105.290	111.712	125.654	114.362	104.216	103.357	103.476	121.739	132.076	106.484	190.566	138.188	46.827
11.000	309.289	283.028	291.073	303.464	314.756	315.591	315.735	296.182	287.779	311.032	225.780	250.250	110.137	138.116	128.328	115.317	104.431	103.452	103.452	122.646	131.241	107.821	192.166	168.889	41.503
12.000	301.076	240.247	284.962	301.482	313.944	315.520	315.663	294.368	288.376	307.785	224.872	274.887	118.397	179.823	134.535	117.060	104.574	103.619	103.619	124.485	130.883	111.020	193.527	144.037	43.488
13.000	293.437	236.141	275.675	299.095	313.896	314.947	315.400	291.909	288.352	303.249	224.085	288.973	125.893	181.900	143.130	119.662	104.813	103.643	103.619	126.514	130.548	115.413	194.290	130.190	47.323
14.000	285.750	255.168	264.884	295.347	313.682	315.090	315.424	289.713	288.591	299.214	222.963	297.854	133.342	163.351	153.706	123.219	105.266	104.073	103.786	129.092	130.477	119.614	194.983	120.784	40.014
15.000	279.566	268.322	254.356	291.646	313.347	314.804	315.066	287.636	288.782	295.251	222.915	303.846	139.429	150.578	164.878	127.158	105.720	104.097	104.001	130.906	130.286	123.410	195.699	115.436	31.531
16.000	273.335	278.826	244.305	287.278	312.894	314.660	315.210	285.941	288.829	291.861	222.222	308.000	146.185	140.432	175.598	131.384	106.078	104.359	104.168	133.007	130.381	126.872	196.129	111.068	39.202
17.000	267.415	285.869	235.520	282.909	312.369	314.326	314.947	283.744	288.042	288.352	221.817	311.318	152.297	132.482	184.407	136.087	106.460	104.574	104.192	134.989	130.525	130.453	196.630	107.630	51.339
18.000	261.303	292.076	231.079	278.540	311.891	314.040	315.042	281.548	287.970	284.866	221.697	314.135	157.621	126.490	190.518	139.859	106.961	104.932	104.359	136.923	130.763	133.938	196.940	105.195	46.511
19.000	255.335	296.922	230.865	273.885	311.175	313.920	314.541	279.853	287.803	281.596	221.053	315.687	163.995	122.002	189.134	144.085	107.511	105.266	104.693	138.976	131.002	137.018	197.131	103.595	32.614
20.000	250.656	300.933	234.637	270.996	310.888	313.037	313.944	277.895	287.827	278.468	220.981	317.358	169.534	118.277	183.786	148.167	107.654	105.648	104.956	141.244	131.217	140.957	197.585	101.685	32.163
21.000	244.043	304.132	240.104	266.269	309.886	312.631	313.896	275.651	287.492	274.362	220.766	318.409	175.168	115.007	176.815	152.488	108.370	106.102	105.123	143.130	131.408	144.419	197.585	101.112	46.105
22.000	239.292	306.329	244.616	262.473	309.814	312.154	313.562	273.670	287.110	270.853	220.742	320.032	179.895	112.405	171.563	155.902	108.967	106.770	105.601	144.872	131.647	147.618	197.919	99.394	52.918
23.000	234.064	308.716	248.841	258.295	309.098	311.366	313.419	271.975	286.896	267.296	220.456	321.226	185.171	110.137	165.475	159.793	109.540	107.511	105.887	146.878	132.005	151.485	198.110	98.510	39.969
24.000	229.719	310.793	253.162	255.478	308.286	310.483	312.607	269.898	286.466	264.096	220.289	321.727	189.898	108.370	161.297	163.541	110.160	108.418	106.293	149.217	132.291	155.066	198.134	98.200	29.185
25.000	225.398	312.082	257.221	251.778	308.215	309.408	312.321	268.131	286.251	260.324	220.002	321.894	194.338	106.938	157.358	167.003	110.733	109.206	106.699	151.127	132.387	158.552	198.277	97.531	37.893
26.000	225.135	312.751	258.152	252.303	307.713	309.384	312.106	267.749	286.370	260.754	219.931	322.061	194.720	106.651	155.759	166.669	110.972	109.349	106.914	151.462	132.554	158.146	198.206	97.293	52.467
27.000	226.949	312.201	258.438	253.353	307.475	309.384	312.106	267.988	286.633	262.688	220.336	322.372	193.336	106.818	155.496	165.356	111.044	109.420	106.938	151.103	132.530	156.260	197.943	98.009	47.955
28.000	228.191	311.461	258.247	254.595	307.379	309.408	311.819	268.298	286.442	264.502	220.790	322.276	191.879	107.033	155.830	164.114	110.948	109.229	107.009	150.578	132.339	154.398	197.967	97.627	32.885
29.000	229.552	311.652	257.627	255.908	308.095	309.790	312.058	269.038	286.800	266.006	220.408	321.321	190.590	107.487	156.857	163.040	111.068	108.991	107.009	150.172	132.387	153.133	198.039	98.176	31.171
30.000	238.456	311.581	258.486	255.574	307.498	309.432	311.915	267.964	286.705	265.959	220.336	321.273	181.709	107.463	156.260	163.374	111.092	109.301	107.129	150.626	132.315	153.180	198.015	98.104	45.564
31.000	277.418	308.859	259.680	254.046	307.666	309.384	311.748	270.757	286.991	281.787	221.148	319.387	143.082	110.089	154.828	164.664	111.235	109.516	107.391	148.740	132.291	138.092	197.251	99.943	53.098
32.000	293.891	296.373	258.558	260.110	308.143	310.196	311.987	274.696	287.063	293.270	222.390	312.751	126.180	123.458	155.639	158.576	111.068	109.015	106.961	144.252	131.885	126.108	195.914	106.484	41.322
33.000	301.530	275.389	255.168	266.675	308.859	311.247	313.037	277.848	287.063	299.190	223.535	302.055	118.015	145.422	159.220	151.724	110.089	107.892	106.651	140.527	131.718	119.280	195.198	117.275	30.990
34.000	306.042	247.743	249.605	273.168	309.456	312.010	312.989	281.261	287.540	302.962	224.085	287.325	113.503	170.847	164.783	144.896	109.420	106.770	105.863	137.185	131.670	115.842	194.529	131.217	37.577
35.000	308.191	225.660	242.921	278.898	310.196	312.751	313.610	283.553	287.206	305.254	224.705	269.372	111.497	195.365	173.115	140.217	108.680	105.911	105.386	134.774	131.575	113.765	193.909	148.740	46.601
36.000	309.480	243.327	235.233	283.386	310.912	313.300	313.944	285.511	287.230	306.711	224.849	253.234	109.707	176.815	181.590	135.514	108.227	105.457	105.075	132.721	131.647	112.023	193.455	166.406	43.804
37.000	310.315	256.338	229.002	286.800	311.628	314.183	314.183	287.254	287.254	307.666	225.469	237.215	108.609	162.682	189.468	131.742	107.534	105.099	104.837	131.193	131.742	110.972	193.073	182.449	39.382
38.000	310.936	266.794	227.809	289.498	311.891	314.278	314.517	288.614	287.254	308.501	225.350	224.323	108.274	152.393	192.452	129.092	106.985	104.574	104.574	129.880	131.885	110.280	193.049	194.553	39.157
39.000	311.987	274.553	232.536	291.646	312.249	314.995	314.923	289.999	287.182	309.098	225.875	218.522	107.415	144.634	187.582	126.920	106.508	104.335	104.479	128.830	131.909	109.635	192.667	201.094	40.961
40.000	312.106	280.235	238.146	293.676	312.822	314.780	314.875	290.668	286.872	309.623	225.875	224.013	107.105	139.214	181.542	124.819	106.221	104.073	104.359	127.994	131.981	109.277	192.452	195.484	39.788
41.000	312.846	284.890	243.613	295.084	312.822	314.828	315.162	291.527	287.230	310.315	226.114	229.790	106.675	134.726	175.574	123.506	106.006	103.953	104.144	127.111	131.957	108.752	192.261	189.611	39.924
42.000	312.751	288.185	248.483	296.159	313.085	314.899	315.042	292.028	287.206	310.506	226.162	234.470	106.532	131.026	170.107	122.503	105.625	103.810	104.025	126.538	132.100	108.633	192.023	184.335	42.586
43.000	313.276	291.097	253.186	297.281	313.371	315.019	315.210	292.506	286.991	310.602	226.448	239.364	106.269	128.495	165.380	121.476	105.577	104.001	104.025	125.917	132.124	108.131	191.903	180.157	42.405
44.000	314.016	293.031	257.078	298.164	313.682	315.305	315.472	293.413	287.015	310.745	226.281	242.491	106.197	126.347	161.655	120.641	105.457	103.762	103.953	125.439	132.100	108.179	191.808	176.624	39.382
45.000	314.159	294.845	260.539	298.785	313.467	315.114	315.711	293.700	287.182	311.103	226.639	245.714	105.887	124.771	158.361	119.972	105.338	103.691	103.929	125.153	132.220	108.060	191.736	173.544	38.525
46.000	313.610	296.517	263.571	299.334	313.777	315.615	315.353	293.914	286.776	311.103	226.424	248.435	105.839	123.076	155.138	119.471	105.219	103.762	103.953	124.652	132.148	107.749	191.664	170.656	42.044
47.000	313.682	297.591	266.150	300.002	313.825	315.233	315.687	294.272	286.776	311.079	226.448	250.608	105.625	121.787	152.775	118.779	105.099	103.691	103.810	124.413	132.124	107.582	191.593	168.245	44.571
48.000	313.968	298.904	268.561	300.360	314.016	315.186	315.377	294.535	286.943	311.461	226.830	252.589	105.744	120.975	150.363	118.468	104.980	103.643	103.786	124.198	132.243	107.606	191.736	166.191	41.097
49.000	313.801	299.525	270.638	300.551	314.183	315.568	315.496	294.774	286.919	311.628	226.782	255.025	105.481	119.972	148.382	118.254	104.980	103.571	103.810	124.055	132.220	107.439	191.569	164.043	37.036
50.000	314.255	300.169	272.739	300.885	314.159	315.496	315.878	295.108	286.728	311.342	226.806	256.767	105.553	119.232	146.424	117.657	104.813	103.619	103.786	123.840	132.220	107.343	191.426	162.205	38.705
51.000	314.016	300.766	274.147	301.172	313.992	315.329	315.687	295.418	286.752	311.605	226.854	258.582	105.410	118.683	144.658	117.418	104.765	103.667	103.739	123.649	132.291	107.272	191.521	160.533	44.706
52.000	314.111	301.124	275.914	301.315	314.040	315.782	316.045	295.251	286.633	311.676	226.902	260.133	105.338	118.206	143.297	117.203	104.670	103.667	103.762	123.458	132.339	107.248	191.426	159.244	44.345
53.000	314.087	301.697	277.060	301.721	313.992	315.496	315.711	295.490	286.824	311.891	226.687	261.279	105.457	117.609	141.841	117.036	104.717	103.619	103.762	123.315	132.363	107.105	191.378	157.883	38.751
54.000	314.016	302.580	278.540	302.103	314.493	315.496	315.400	295.538	286.633	311.748	227.212	262.449	105.266	117.179	140.814	116.893	104.813	103.548	103.571	123.219	132.148	107.129	191.378	156.738	35.998
55.000	314.231	302.676	279.423	301.864	314.374	315.281	315.520	295.681	286.705	311.748	227.140	263.714	105.195	116.845	139.764	116.750	104.693	103.500	103.715	123.124	132.339	106.938	191.330	155.735	41.683
56.000	314.398	302.986	280.330	302.342	314.278	315.472	315.711	295.753	286.561	311.891	227.069	264.311	105.123	116.415	138.809	116.582	104.670	103.524	103.762	123.219	132.315	106.794	191.378	154.565	46.015
57.000	314.493	303.321	281.166	302.175	314.135	315.544	315.759	295.705	286.848	312.201	227.093	265.553	104.956	116.296	138.045	116.415	104.502	103.476	103.667	122.981	132.339	106.961	191.354	153.730	42.495
58.000	314.613	303.488	282.073	302.413	314.231	315.496	315.591	295.824	287.063	312.273	226.902	266.364	105.028	115.914	137.281	116.200	104.598	103.524	103.762	122.909	132.458	106.890	191.378	152.751	35.682
59.000	314.422	303.703	282.503	302.724	314.278	315.496	315.782	296.254	286.848	312.273	226.830	267.152	104.956	115.532	136.564	116.177	104.598	103.500	103.667	122.861	132.363	106.866	191.354	151.939	37.713
60.000	314.446	304.084	283.315	302.771	314.446	315.735	315.591	295.872	286.442	312.106	226.949	268.036	105.099	115.341	135.824	116.057	104.550	103.500	103.619	122.670	132.291	106.747	191.378	151.247	44.797
61.000	314.708	304.180	283.458	302.748	314.398	315.448	315.782	296.540	286.776	312.106	227.021	268.823	104.908	115.150	135.251	115.890	104.455	103.524	103.643	122.766	132.482	106.627	191.306	150.530	45.383
62.000	314.493	304.586	284.317	302.986	314.589	315.400	315.854	296.111	286.681	312.058	227.236	269.038	104.908	114.983	134.989	115.986	104.550	103.524	103.667	122.766	132.363	106.699	191.282	150.029	38.886
63.000	314.326	304.586	284.819	303.177	314.589	315.591	315.448	296.278	286.657	312.273	226.782	270.041	104.884	114.816	134.392	115.842	104.359	103.571	103.524	122.694	132.411	106.794	191.330	149.385	35.276
64.000	314.589	305.016	285.392	302.771	314.278	315.377	315.735	296.206	286.896	312.392	227.164	270.709	104.980	114.601	134.177	115.747	104.359	103.285	103.619	122.622	132.506	106.794	191.354	148.812	40.961
65.000	314.828	305.159	285.774	303.034	314.207	315.663	315.782	296.421	287.039	312.345	227.284	271.115	104.956	114.482	133.604	115.723	104.455	103.595	103.667	122.575	132.339	106.603	191.282	148.167	46.962
66.000	314.780	305.111	285.917	303.297	314.541	315.520	315.735	296.302	286.776	312.345	227.284	271.497	104.908	114.195	133.103	115.484	104.288	103.571	103.595	122.551	132.339	106.627	191.115	147.499	43.082
67.000	314.732	305.445	286.466	303.153	314.398	315.663	315.759	296.588	286.752	312.464	227.164	272.046	104.884	114.123	132.745	115.627	104.455	103.476	103.524	122.455	132.387	106.747	191.211	147.284	35.637
68.000	314.398	305.493	286.848	303.535	314.517	315.353	315.687	296.326	286.800	312.727	226.902	272.404	104.837	114.004	132.530	115.651	104.479	103.357	103.428	122.360	132.458	106.651	191.163	146.758	36.720
69.000	314.780	305.421	287.206	303.106	314.326	315.424	315.782	296.564	286.848	312.297	227.116	272.810	104.526	113.932	132.148	115.293	104.288	103.500	103.571	122.503	132.625	106.603	191.187	146.376	44.751
70.000	314.732	305.875	287.755	303.917	314.493	315.520	315.663	296.278	286.394	312.273	227.021	273.216	104.932	113.813	131.885	115.508	104.359	103.380	103.524	122.455	132.387	106.699	191.235	145.971	46.466
71.000	314.469	305.493	287.349	303.344	314.469	315.448	315.568	296.731	286.943	312.679	227.260	273.932	104.861	113.837	131.814	115.484	104.407	103.428	103.524	122.240	132.339	106.603	191.187	145.589	39.518
72.000	315.042	306.090	287.898	303.321	314.469	315.329	315.830	296.636	286.728	312.201	227.379	273.908	104.789	113.741	131.479	115.293	104.311	103.452	103.619	122.384	132.506	106.556	191.044	145.302	34.419
73.000	314.995	306.090	288.089	303.344	314.350	315.544	315.854	296.660	286.514	312.201	227.284	274.099	104.741	113.622	131.217	115.269	104.288	103.404	103.571	122.360	132.578	106.556	191.235	144.920	39.924
74.000	314.660	305.899	288.161	303.488	314.446	315.448	315.591	296.540	286.848	312.488	227.284	274.768	104.813	113.503	131.050	115.269	104.335	103.548	103.571	122.336	132.315	106.579	191.187	144.347	47.098
75.000	314.756	305.947	288.471	303.535	314.446	315.400	315.854	296.803	286.728	312.751	227.451	275.508	104.598	113.479	130.859	115.341	104.335	103.357	103.500	122.121	132.411	106.556	191.139	144.228	43.894
76.000	314.732	306.496	288.734	303.440	314.613	315.687	315.568	296.636	286.872	312.536	227.618	275.818	104.741	113.192	130.572	115.150	104.359	103.500	103.571	122.193	132.339	106.532	191.020	143.559	35.637
77.000	314.804	306.424	288.925	303.798	314.589	315.520	315.639	296.588	286.657	312.488	227.284	275.747	104.646	113.121	130.214	115.126	104.288	103.595	103.500	122.240	132.387	106.508	191.068	143.225	36.359
78.000	315.257	306.591	289.402	303.559	314.422	315.687	315.782	296.731	286.800	312.440	227.188	275.985	104.932	113.073	130.119	115.102	104.407	103.428	103.762	122.193	132.458	106.556	191.068	143.058	45.022
79.000	314.828	306.711	289.569	303.512	314.422	315.520	315.496	296.684	286.538	312.321	227.212	276.415	104.526	113.073	129.975	115.007	104.288	103.452	103.643	122.145	132.411	106.484	191.115	142.604	46.872
80.000	314.684	306.376	289.378	303.822	314.756	315.854	315.639	296.779	286.561	312.225	227.236	276.940	104.622	112.930	129.617	114.911	104.455	103.428	103.595	122.193	132.339	106.412	191.163	142.413	39.698
81.000	314.947	306.687	289.593	303.392	314.374	315.162	315.448	297.066	286.991	312.798	227.546	277.489	104.479	112.858	129.617	115.007	104.359	103.404	103.619	122.026	132.458	106.460	190.948	142.055	34.058
82.000	315.066	306.687	289.808	303.583	314.684	315.591	315.830	296.708	286.394	312.416	227.284	277.489	104.646	112.691	129.355	114.983	104.311	103.524	103.691	122.121	132.411	106.484	191.091	141.888	40.194
83.000	314.947	306.758	289.975	303.535	314.828	315.687	315.711	296.994	286.609	312.416	227.522	277.824	104.622	112.691	129.402	115.007	104.383	103.357	103.428	122.049	132.363	106.508	190.996	141.626	47.594
84.000	314.374	306.830	290.190	303.893	314.828	315.615	315.568	296.684	286.800	312.631	227.451	278.134	104.670	112.619	129.116	114.959	104.311	103.380	103.476	121.882	132.387	106.460	191.091	141.530	43.894
85.000	314.660	306.758	290.548	304.037	314.684	315.520	315.759	296.660	286.800	312.583	227.284	278.397	104.717	112.643	128.973	114.935	104.359	103.476	103.524	122.145	132.458	106.436	191.115	141.148	35.276
86.000	314.732	307.116	290.405	303.559	314.302	315.448	315.520	296.684	286.776	312.655	227.260	278.421	104.574	112.596	128.830	114.887	104.264	103.428	103.548	121.978	132.315	106.365	190.900	141.053	35.998
87.000	314.947	306.830	290.739	303.965	314.517	315.448	315.830	296.827	286.633	312.512	227.355	278.516	104.861	112.381	128.639	114.864	104.240	103.476	103.571	122.073	132.387	106.221	191.044	140.695	44.932
88.000	314.899	306.973	290.859	303.965	314.708	315.639	315.663	296.755	286.633	312.416	227.522	278.564	104.693	112.428	128.662	114.935	104.311	103.476	103.643	122.002	132.363	106.317	190.972	140.408	47.233
89.000	314.995	306.902	290.763	303.870	314.541	315.472	315.926	297.161	286.800	312.774	227.355	278.970	104.693	112.405	128.424	114.816	104.073	103.404	103.548	122.169	132.458	106.317	190.948	140.002	39.472
