-----------------------------------------------------
BloodHound 307 VOC Analyser V2017.1
RoboScientific Ltd 
Espace North
Wisbech Road
Littleport
Cambridgeshire, UK
CB6 1RA 
-----------------------------------------------------
Date = 31/03/2022
Time = 12:33:48
Data is protected by RoboScientific Limited
-----------------------------------------------------
Name of the experiment = "36b_Day 43"
-----------------------------------------------------
Repeat No. = 4/4
-----------------------------------------------------
Experimental Time (in sec) and Flow Profile :
-----------------------------------------------------
Baseline = 2.00
Absorb = 4.00
Pause = 1.00
Desorb = 5.00
Flush = 20.00
Wait = 5.00
Higher Flow (V) = 4.00
Medium Flow (V) = 3.00
Low Flow (V) = 1.00
-----------------------------------------------------
Total Profile Time = 37 in sec
-----------------------------------------------------
Acquired data point per second = 4
--------------------------------------------------
Total data point stored  = 128
-----------------------------------------------------
Acquired sensor responses from 24 sensors
-----------------------------------------------------

Data Points	 Sen-1	 Sen-2	 Sen-3	 Sen-4	 Sen-5	 Sen-6	 Sen-7	 Sen-8	 Sen-9	 Sen-10	 Sen-11	 Sen-12	 Sen-13	 Sen-14	 Sen-15	 Sen-16	 Sen-17	 Sen-18	 Sen-19	 Sen-20	 Sen-21	 Sen-22	 Sen-23	 Sen-24	Humidity (%r.h.)
0.000	312.846	309.528	290.859	304.037	314.804	315.735	315.520	296.970	286.752	311.414	228.812	281.667	106.150	109.731	128.567	114.792	104.168	103.380	103.571	121.811	132.339	107.678	189.659	137.543	35.006
1.000	313.085	309.695	291.121	304.037	314.708	315.663	315.759	296.875	286.657	311.318	228.621	281.691	106.030	109.564	128.448	114.696	104.192	103.452	103.500	122.002	132.363	107.701	189.755	137.281	35.773
2.000	313.300	309.957	290.882	303.870	314.517	315.663	315.806	297.090	286.585	311.318	228.167	281.787	106.221	109.611	128.352	114.625	104.025	103.404	103.476	121.954	132.458	107.749	189.826	137.328	44.977
3.000	313.395	309.790	290.930	304.037	314.995	315.735	315.806	297.113	286.705	311.223	228.525	281.858	106.174	109.826	128.304	114.673	104.192	103.476	103.524	121.906	132.387	107.678	189.731	137.209	47.729
4.000	313.300	309.766	290.882	303.917	314.756	315.663	315.806	297.257	286.967	311.270	228.406	281.906	106.221	109.635	128.280	114.696	104.288	103.548	103.500	122.049	132.363	107.630	189.778	137.305	39.924
5.000	313.419	309.886	290.954	304.037	314.589	315.615	315.711	297.066	286.919	311.342	228.310	281.930	106.221	109.707	128.304	114.649	104.168	103.380	103.500	121.835	132.363	107.725	189.755	137.305	33.607
6.000	313.777	309.480	290.739	304.108	314.851	315.902	316.021	297.233	286.896	311.414	228.477	281.858	106.221	109.635	128.304	114.625	104.168	103.428	103.452	121.906	132.411	107.582	189.707	137.161	39.202
7.000	313.300	309.862	291.050	304.204	314.708	315.591	315.735	296.970	286.752	311.366	228.215	281.858	106.221	109.588	128.233	114.696	104.311	103.571	103.571	121.954	132.267	107.558	189.707	137.281	47.910
8.000	313.228	309.719	290.978	303.941	314.565	315.615	315.687	296.922	287.015	311.533	228.453	282.479	106.006	109.659	128.185	114.601	104.288	103.428	103.476	121.763	132.291	107.391	189.659	136.970	45.112
9.000	313.467	309.814	290.978	304.061	314.899	315.687	315.615	296.994	286.848	311.270	228.477	282.264	106.365	109.277	128.113	114.744	104.264	103.428	103.476	121.763	132.243	107.630	189.635	136.946	36.089
10.000	312.106	308.238	290.930	303.750	314.374	315.568	315.854	296.922	287.015	310.936	227.952	278.182	107.105	110.996	128.352	114.792	104.311	103.476	103.452	122.002	131.861	108.012	190.113	139.835	34.690
11.000	297.758	270.208	287.182	302.318	314.374	315.639	315.615	295.705	288.280	305.899	226.162	273.240	120.068	146.209	131.432	115.866	104.383	103.428	103.619	123.219	131.002	112.500	192.357	145.302	40.194
12.000	277.060	248.985	278.946	300.193	313.610	315.138	315.544	292.339	288.758	293.103	224.729	294.965	142.390	170.823	140.599	118.659	104.741	103.548	103.548	126.251	130.405	125.487	193.741	124.723	34.148
13.000	256.481	276.057	265.290	295.633	313.634	315.114	315.138	289.116	288.925	282.956	223.130	306.854	163.470	142.963	153.944	123.148	105.338	103.977	103.834	129.808	130.190	136.517	194.983	113.097	40.826
14.000	232.989	292.386	250.489	289.665	312.894	314.446	315.138	285.296	288.543	272.667	222.222	313.324	186.006	125.941	168.531	129.164	105.911	104.288	103.906	133.628	130.310	145.923	196.296	106.054	51.790
15.000	234.780	303.010	237.645	282.575	312.225	314.111	315.090	281.476	288.185	261.948	221.291	317.645	183.452	115.413	182.425	136.015	106.460	104.693	104.240	137.114	130.572	156.594	196.940	101.089	44.616
16.000	255.287	310.506	231.461	275.198	311.557	313.634	314.446	277.298	287.898	248.722	220.933	321.106	164.353	108.179	189.993	143.130	107.415	105.362	104.693	141.315	130.930	169.581	197.537	98.797	31.035
17.000	272.261	315.878	236.332	268.012	310.483	312.846	314.064	273.407	287.325	235.114	220.098	322.992	147.045	103.380	182.378	151.127	108.083	105.959	105.123	145.541	131.551	183.977	198.110	96.290	33.381
18.000	284.890	319.531	244.329	260.444	309.361	311.676	313.491	268.871	287.039	220.360	219.405	324.950	133.843	100.110	172.327	158.027	109.086	106.985	105.577	150.077	132.076	198.803	198.612	94.667	48.451
19.000	294.941	321.679	251.300	253.521	308.525	310.483	312.727	264.359	286.036	227.689	219.716	326.024	124.198	96.958	162.921	165.046	110.160	108.370	106.221	154.541	132.792	189.659	198.874	92.995	52.467
20.000	302.867	324.186	258.462	246.430	307.164	308.668	311.915	259.417	285.511	241.154	219.095	327.146	116.320	95.096	154.995	171.945	111.330	110.065	107.057	159.316	133.485	176.958	199.185	93.019	38.886
21.000	308.955	325.833	264.144	239.578	305.970	306.758	310.984	255.407	284.699	252.900	218.498	328.125	110.495	93.186	149.241	178.868	112.619	112.142	108.036	164.114	134.177	165.977	199.376	92.279	28.238
22.000	313.419	327.051	269.802	233.515	304.538	304.180	309.599	250.560	284.413	262.951	218.594	328.006	105.625	92.279	143.750	185.099	114.147	114.410	109.373	169.367	134.774	155.544	199.590	91.778	38.841
23.000	317.024	327.934	273.550	227.546	303.297	302.055	308.167	245.809	283.482	270.566	218.880	328.555	101.590	91.277	139.262	191.378	115.532	116.630	110.733	173.879	135.562	147.188	199.543	91.563	53.234
24.000	320.509	328.746	277.203	222.175	301.888	299.262	306.543	241.679	282.527	278.373	218.546	328.865	99.012	90.274	135.275	196.558	116.702	119.280	112.572	177.507	136.183	139.883	200.020	91.444	47.729
25.000	322.276	329.438	279.901	219.310	300.408	296.373	304.514	238.170	281.834	282.455	218.641	329.414	96.600	89.677	132.912	199.996	118.468	122.097	114.338	181.852	136.827	136.206	199.734	90.417	31.802
26.000	323.589	329.772	281.166	219.143	299.381	295.275	303.440	238.146	281.691	282.622	218.570	329.366	96.385	89.295	131.241	200.116	119.185	123.339	115.771	181.924	137.018	135.872	199.949	90.441	30.629
27.000	323.398	330.274	281.429	219.214	299.310	295.418	303.034	239.268	282.169	282.598	218.618	329.653	95.550	89.367	131.551	200.187	119.423	123.219	115.890	181.041	136.803	136.469	199.734	90.584	46.421
28.000	324.425	329.916	281.261	220.145	299.310	295.777	302.867	240.128	282.479	281.572	218.737	328.865	95.598	88.913	131.432	199.471	119.256	122.933	116.248	180.110	136.779	137.161	200.044	91.014	53.911
29.000	324.138	330.202	281.238	220.814	299.190	296.039	302.652	241.035	282.312	281.476	218.904	329.557	95.478	89.176	131.599	198.516	119.328	122.885	116.153	179.035	136.445	137.615	199.853	91.062	40.285
30.000	325.045	330.680	281.739	220.313	299.071	294.965	302.222	240.175	282.598	283.315	218.498	329.080	94.762	88.794	131.575	199.089	119.710	123.744	116.773	179.871	136.684	135.442	200.020	91.133	28.463
31.000	321.631	329.725	283.243	218.498	297.949	292.912	300.885	242.777	282.527	281.476	218.952	328.244	97.221	89.295	130.357	200.593	120.951	125.750	118.086	176.744	136.421	136.732	199.495	91.778	36.630
32.000	313.586	328.698	283.911	219.740	298.379	294.463	301.697	251.109	283.911	265.935	220.074	325.165	105.529	90.847	129.856	199.543	120.474	124.532	117.227	169.104	135.037	152.034	198.325	94.380	51.970
33.000	300.121	326.335	282.551	225.756	299.405	296.254	303.010	257.937	285.081	243.852	221.124	321.655	121.285	93.019	130.692	193.503	119.328	122.479	115.651	161.823	133.843	175.550	197.060	98.415	49.399
34.000	273.097	322.730	280.712	233.562	300.599	298.450	304.705	263.070	286.179	229.910	221.984	316.284	148.716	96.935	133.342	184.550	117.848	119.925	113.932	155.377	132.888	187.678	196.272	103.285	34.374
35.000	233.061	316.809	277.824	243.112	302.198	300.790	306.663	268.131	286.705	254.428	223.201	309.910	186.221	101.805	136.517	175.144	116.200	117.299	112.237	150.530	132.291	164.186	195.365	109.588	31.351
36.000	256.385	310.244	273.288	252.231	304.108	303.893	308.238	272.022	286.896	271.593	223.201	301.745	163.541	108.203	140.504	166.072	114.792	114.864	110.781	146.591	132.076	147.642	194.863	116.941	43.443
37.000	274.195	301.793	268.298	260.635	305.230	306.233	309.933	275.508	287.063	282.360	223.941	293.079	145.374	116.750	146.042	158.003	113.383	112.524	109.397	143.416	131.981	136.875	194.338	125.583	50.301
38.000	285.392	291.241	262.330	267.964	306.734	308.692	310.769	278.325	287.063	289.331	224.443	285.224	134.726	128.830	152.703	150.865	112.023	110.137	108.155	140.527	131.861	129.617	193.694	134.989	41.819
39.000	291.861	277.251	255.430	273.312	307.618	310.077	312.010	280.187	287.373	293.747	225.135	275.651	127.564	142.294	160.557	144.825	110.853	108.322	107.272	138.140	131.814	124.938	193.503	144.299	34.464
40.000	296.827	262.354	247.648	278.755	308.692	311.438	312.703	282.933	287.087	296.660	225.374	266.770	123.171	155.950	168.364	139.644	109.969	107.224	106.603	135.777	131.718	121.787	192.954	152.727	37.893
41.000	299.763	246.526	239.435	282.431	309.337	312.536	313.443	284.246	287.158	299.023	225.756	257.889	119.710	171.802	177.340	136.183	109.086	106.269	105.911	134.201	131.885	119.567	192.763	161.011	44.932
42.000	302.318	231.247	231.939	285.821	310.244	313.133	313.682	285.774	287.301	300.981	225.636	250.107	117.466	187.725	185.410	132.983	108.370	105.505	105.505	132.625	131.933	117.848	192.595	168.794	43.398
43.000	303.750	225.421	227.689	288.089	310.912	314.087	314.183	287.182	286.943	302.175	225.899	242.682	115.651	194.219	191.712	130.214	107.606	105.123	105.195	131.575	131.790	116.559	192.381	176.123	39.653
44.000	304.944	240.128	227.904	290.477	311.628	314.422	314.326	288.256	287.182	303.488	226.090	236.236	114.314	179.274	192.166	128.209	107.224	104.622	104.741	130.429	132.005	115.532	192.070	182.951	38.570
45.000	305.970	252.780	231.581	292.219	312.106	314.732	314.493	288.925	287.039	304.371	226.400	230.602	113.336	166.693	188.680	126.729	106.938	104.479	104.598	129.331	132.005	114.792	191.784	188.131	40.961
46.000	306.639	262.760	235.974	293.485	312.225	314.756	314.947	289.641	287.015	304.801	226.711	225.350	112.643	157.167	183.476	125.057	106.508	104.335	104.455	128.782	131.981	114.147	191.808	193.216	42.450
47.000	307.618	270.495	240.700	295.180	312.703	314.828	315.090	290.644	287.039	305.612	226.472	221.124	112.142	149.408	178.295	123.864	106.245	104.073	104.359	128.185	132.029	113.503	191.712	197.537	40.646
48.000	307.952	275.747	244.735	295.800	312.989	314.923	314.995	290.954	286.967	305.923	226.472	219.000	111.497	143.464	173.998	123.028	106.102	103.977	104.144	127.373	132.029	113.121	191.593	200.641	39.833
49.000	308.334	280.378	248.961	296.684	312.965	315.090	315.090	291.646	286.824	306.472	227.116	219.167	111.187	138.737	169.868	122.097	105.887	103.929	104.144	126.848	131.981	112.715	191.497	200.617	40.646
50.000	308.692	284.174	252.971	297.519	313.347	315.019	315.305	292.673	287.110	306.663	226.782	221.793	110.399	135.108	165.809	120.975	105.601	103.762	104.073	126.347	132.267	112.166	191.378	197.919	40.510
51.000	309.528	287.134	256.529	298.259	313.395	315.162	315.329	292.912	286.991	307.451	227.164	225.183	109.969	132.100	162.228	120.354	105.481	103.786	104.049	126.156	132.196	111.832	191.306	194.744	39.382
52.000	309.146	290.071	259.895	298.904	313.443	315.210	315.090	292.959	286.800	307.618	227.236	227.737	109.850	129.689	159.053	119.925	105.314	103.810	103.953	125.511	132.124	111.450	191.330	191.641	40.826
53.000	310.053	291.599	262.425	299.763	313.896	315.281	315.448	293.509	287.039	307.952	227.284	230.721	109.659	127.540	156.308	119.328	105.195	103.691	103.906	125.248	132.196	111.378	191.211	188.919	42.405
54.000	310.292	293.556	264.837	299.644	313.682	315.520	315.424	293.652	286.728	307.833	227.379	233.347	109.206	125.917	154.016	118.994	105.147	103.619	104.001	125.129	132.339	111.044	191.115	186.221	41.232
55.000	310.053	295.227	266.914	300.121	313.634	315.353	315.377	293.843	286.705	308.071	226.973	235.472	109.182	124.389	152.130	118.731	105.028	103.619	103.834	124.676	132.267	110.829	191.139	183.738	39.157
56.000	310.363	296.349	268.609	300.575	313.777	315.568	315.448	294.153	286.776	308.501	226.926	238.218	109.062	123.100	150.244	118.182	105.052	103.691	103.953	124.508	132.124	110.614	191.044	181.327	39.202
57.000	310.936	297.233	270.638	300.599	313.562	315.329	315.663	294.607	286.872	308.549	227.546	239.722	108.824	121.906	148.788	118.015	105.052	103.428	103.715	124.317	132.267	110.423	191.115	179.417	43.037
58.000	311.032	298.188	272.046	300.862	314.111	315.591	315.400	294.750	286.967	308.740	227.666	242.634	108.680	121.262	147.451	117.800	104.884	103.571	103.810	124.126	132.243	110.447	190.996	177.484	43.623
59.000	310.888	299.596	272.882	300.766	313.896	315.114	315.400	294.822	287.325	309.026	227.689	243.661	108.489	120.354	146.138	117.633	104.956	103.595	103.786	124.055	132.196	110.256	190.972	175.645	39.743
60.000	311.151	300.074	274.314	301.220	313.825	315.496	315.711	294.893	286.991	308.955	227.594	245.284	108.298	119.471	144.825	117.442	104.837	103.571	103.691	123.912	132.387	110.113	190.805	174.094	38.074
61.000	311.223	300.480	275.221	301.291	313.849	315.472	315.639	295.013	286.967	309.193	226.973	247.218	108.203	118.755	143.894	117.251	104.741	103.524	103.739	123.744	132.339	109.755	190.853	172.590	40.420
62.000	311.390	301.124	275.842	301.530	313.920	315.639	315.544	294.893	286.681	309.217	227.498	248.244	108.203	118.254	143.058	117.084	104.717	103.404	103.691	123.601	132.339	109.874	190.853	170.775	44.345
63.000	311.772	301.721	276.654	301.960	314.183	315.711	315.782	295.227	286.490	309.122	227.355	249.963	108.107	117.585	142.055	117.060	104.813	103.476	103.762	123.625	132.315	109.611	190.877	169.128	42.541
64.000	311.724	302.246	278.015	302.031	314.374	315.472	315.568	295.442	286.776	309.193	227.284	251.491	107.869	117.108	141.339	116.821	104.598	103.619	103.786	123.577	132.458	109.611	190.829	167.863	38.209
65.000	311.438	303.058	278.755	301.936	314.183	315.329	315.400	295.299	286.919	309.313	227.857	252.995	107.869	116.797	140.551	116.917	104.693	103.548	103.691	123.315	132.243	109.564	190.900	166.764	38.209
66.000	311.891	302.867	279.041	302.031	314.111	315.687	315.878	295.753	286.728	309.480	227.570	253.616	107.725	116.463	140.050	116.654	104.502	103.524	103.667	123.267	132.506	109.588	190.733	165.714	42.992
67.000	312.058	303.535	279.996	302.222	314.684	315.735	315.639	295.562	286.657	309.599	227.689	254.595	107.654	116.057	139.334	116.582	104.479	103.500	103.619	123.291	132.172	109.301	190.733	164.664	44.751
68.000	311.605	303.750	280.116	302.127	314.565	315.496	315.591	295.824	286.800	309.480	227.618	255.526	107.940	115.675	138.498	116.415	104.646	103.595	103.619	123.195	132.339	109.325	190.733	163.613	40.285
69.000	311.963	304.132	280.975	302.485	314.111	315.257	315.639	295.753	286.490	309.623	227.546	256.672	107.439	115.627	138.283	116.415	104.550	103.548	103.715	123.243	132.363	109.229	190.686	162.706	36.720
70.000	311.939	304.275	281.667	302.270	314.231	315.544	315.424	295.848	286.919	309.838	227.689	257.484	107.511	115.269	137.806	116.391	104.646	103.500	103.619	122.981	132.315	109.229	190.662	161.799	39.382
71.000	311.605	304.490	281.715	302.652	314.589	315.448	315.448	295.729	286.705	309.719	227.642	258.391	107.415	115.150	137.376	116.320	104.622	103.476	103.476	122.909	132.315	109.015	190.638	161.035	44.842
72.000	312.034	304.896	282.384	302.533	314.374	315.424	315.591	295.657	286.609	309.862	227.666	259.155	107.534	114.768	137.066	116.129	104.574	103.524	103.667	122.933	132.387	109.062	190.757	160.247	43.849
73.000	312.488	304.705	282.360	302.485	314.374	315.639	315.950	296.063	286.776	310.172	227.785	259.966	107.224	114.696	136.708	116.177	104.479	103.428	103.524	122.885	132.387	109.086	190.638	159.507	38.119
74.000	312.392	305.016	283.315	302.533	314.613	315.639	315.544	295.991	286.752	309.933	227.904	260.515	107.152	114.386	136.302	116.057	104.598	103.428	103.571	122.790	132.339	109.038	190.495	158.767	36.630
75.000	312.201	305.135	283.768	302.915	314.660	315.830	315.615	295.944	286.633	309.838	227.618	261.423	107.439	114.100	135.992	115.986	104.550	103.524	103.667	122.766	132.363	108.919	190.614	158.146	42.315
76.000	312.560	305.063	283.195	302.795	314.517	316.212	315.926	296.159	286.800	309.933	227.546	261.852	107.439	114.004	135.586	115.890	104.598	103.571	103.810	122.766	132.267	108.847	190.662	157.239	45.609
77.000	312.082	305.756	283.911	302.604	314.326	315.353	315.568	295.968	286.872	310.363	228.024	262.855	107.152	113.909	135.490	116.009	104.502	103.524	103.691	122.813	132.267	108.824	190.518	156.618	41.548
78.000	312.249	305.517	283.864	303.297	314.493	315.950	315.639	296.230	286.776	310.053	227.761	263.309	107.057	113.789	135.228	115.866	104.502	103.452	103.595	122.766	132.267	108.895	190.495	155.950	35.953
79.000	312.727	305.899	284.604	303.010	314.422	315.806	315.878	296.278	286.370	310.053	227.809	263.762	107.033	113.765	134.941	115.795	104.335	103.404	103.571	122.646	132.411	108.800	190.423	155.401	38.299
80.000	312.464	305.398	284.556	302.939	314.446	315.568	316.045	295.991	286.442	310.005	227.713	264.431	106.961	113.598	134.631	115.795	104.264	103.548	103.786	122.790	132.434	108.609	190.566	154.852	45.022
81.000	312.345	305.708	284.675	302.939	314.278	315.520	315.639	296.278	286.609	310.029	227.761	265.362	106.938	113.503	134.464	115.818	104.479	103.428	103.452	122.670	132.387	108.824	190.495	154.183	44.842
82.000	312.536	306.329	285.153	302.939	314.589	315.448	315.639	296.326	286.848	310.387	227.666	265.696	107.081	113.431	134.225	115.747	104.407	103.428	103.404	122.599	132.315	108.561	190.351	153.586	38.615
83.000	312.464	306.185	285.320	303.010	314.422	315.687	315.735	296.135	286.657	310.196	227.594	266.173	107.152	113.312	134.034	115.747	104.502	103.428	103.619	122.622	132.291	108.633	190.423	153.204	35.728
84.000	312.369	306.209	285.368	303.273	314.541	315.759	315.711	296.397	286.561	310.053	228.071	266.436	106.938	113.192	133.891	115.556	104.359	103.500	103.524	122.766	132.339	108.561	190.304	152.416	41.683
85.000	313.252	306.615	285.750	303.058	314.422	315.735	315.997	296.493	286.728	310.268	227.737	267.200	106.866	113.049	133.652	115.604	104.264	103.428	103.619	122.646	132.434	108.561	190.399	151.867	46.421
86.000	312.727	306.758	286.466	303.297	314.326	315.353	315.615	296.421	286.728	310.554	227.976	267.892	106.890	112.787	133.127	115.532	104.383	103.333	103.548	122.551	132.339	108.513	190.328	151.271	42.315
87.000	312.631	306.806	286.705	303.488	314.756	315.424	315.615	296.135	286.681	310.506	227.642	268.800	107.009	112.787	133.055	115.771	104.431	103.404	103.476	122.527	132.434	108.418	190.256	150.721	35.592
88.000	312.345	306.830	286.752	303.321	314.350	315.591	315.568	296.326	286.872	310.602	228.143	269.253	106.794	112.691	132.769	115.651	104.288	103.380	103.428	122.360	132.411	108.513	190.423	150.483	37.668
89.000	312.679	306.734	286.585	303.559	314.660	315.782	315.759	296.493	286.752	310.506	227.904	269.158	106.890	112.476	132.578	115.627	104.383	103.404	103.571	122.503	132.411	108.489	190.423	149.981	44.977
