-----------------------------------------------------
BloodHound 307 VOC Analyser V2017.1
RoboScientific Ltd 
Espace North
Wisbech Road
Littleport
Cambridgeshire, UK
CB6 1RA 
-----------------------------------------------------
Date = 08/04/2022
Time = 11:54:03
Data is protected by RoboScientific Limited
-----------------------------------------------------
Name of the experiment = "47b_Day 33"
-----------------------------------------------------
Repeat No. = 4/4
-----------------------------------------------------
Experimental Time (in sec) and Flow Profile :
-----------------------------------------------------
Baseline = 2.00
Absorb = 4.00
Pause = 1.00
Desorb = 5.00
Flush = 20.00
Wait = 5.00
Higher Flow (V) = 4.00
Medium Flow (V) = 3.00
Low Flow (V) = 1.00
-----------------------------------------------------
Total Profile Time = 37 in sec
-----------------------------------------------------
Acquired data point per second = 4
--------------------------------------------------
Total data point stored  = 128
-----------------------------------------------------
Acquired sensor responses from 24 sensors
-----------------------------------------------------

Data Points	 Sen-1	 Sen-2	 Sen-3	 Sen-4	 Sen-5	 Sen-6	 Sen-7	 Sen-8	 Sen-9	 Sen-10	 Sen-11	 Sen-12	 Sen-13	 Sen-14	 Sen-15	 Sen-16	 Sen-17	 Sen-18	 Sen-19	 Sen-20	 Sen-21	 Sen-22	 Sen-23	 Sen-24	Humidity (%r.h.)
0.000	312.297	303.870	294.058	308.262	315.233	315.687	315.639	301.267	289.020	311.008	229.910	269.540	107.176	115.436	125.034	110.877	103.810	103.357	103.548	117.728	130.381	107.845	188.561	149.671	43.037
1.000	311.843	304.347	294.034	307.833	315.448	315.568	315.806	301.076	288.447	310.769	229.575	269.945	107.463	115.484	125.081	110.686	103.667	103.189	103.333	117.752	130.381	107.940	188.394	149.456	36.630
2.000	312.034	304.275	294.344	307.904	314.971	315.520	315.950	301.172	288.829	310.888	229.886	270.351	107.224	115.269	124.914	110.757	103.739	103.333	103.428	117.704	130.405	108.012	188.489	149.098	35.186
3.000	311.915	304.132	294.559	307.809	314.995	315.997	315.878	301.076	288.877	311.223	229.552	270.495	107.248	115.078	124.699	110.757	103.762	103.380	103.404	117.776	130.357	107.940	188.561	148.764	40.510
4.000	312.225	304.084	294.463	308.167	315.019	315.902	315.759	301.100	288.996	311.056	229.838	270.662	107.105	115.031	124.556	110.733	103.810	103.380	103.452	117.728	130.357	107.892	188.442	148.668	46.195
5.000	312.512	304.538	294.798	308.382	314.851	315.591	315.639	301.196	288.710	311.079	229.719	271.211	107.200	115.126	124.437	110.566	103.715	103.333	103.571	117.776	130.405	107.916	188.585	148.358	44.481
6.000	312.607	304.371	294.631	307.737	315.257	315.711	316.021	301.244	289.116	311.414	229.719	271.282	107.033	114.983	124.365	110.710	103.762	103.285	103.380	117.633	130.310	107.701	188.656	148.167	38.209
7.000	312.918	304.514	294.869	308.071	315.210	315.639	316.236	301.244	288.829	310.936	229.623	271.378	107.224	115.031	124.294	110.757	103.691	103.380	103.548	117.704	130.405	107.916	188.394	148.024	34.239
8.000	312.321	304.657	294.941	307.785	314.780	315.711	315.926	301.172	289.164	311.318	229.671	271.187	107.105	114.887	124.246	110.614	103.762	103.404	103.619	117.800	130.357	107.606	188.370	147.642	38.660
9.000	312.297	305.016	295.156	307.833	315.090	315.496	315.711	300.885	288.782	311.056	229.647	271.760	107.200	114.864	124.174	110.638	103.810	103.380	103.428	117.681	130.310	107.630	188.489	147.546	45.248
10.000	311.008	303.392	294.845	307.904	315.114	315.687	315.711	300.838	288.973	310.459	229.432	269.587	108.107	116.081	124.294	110.542	103.667	103.285	103.452	117.728	130.095	108.251	188.680	150.339	45.970
11.000	294.153	266.388	293.509	307.307	314.995	315.639	315.615	300.074	289.474	306.400	227.379	268.250	126.132	154.947	125.845	111.354	103.929	103.500	103.619	118.636	129.259	112.500	190.614	151.653	40.510
12.000	260.539	261.972	288.638	305.398	314.422	315.639	315.711	296.708	290.310	290.262	225.923	292.100	158.576	155.377	130.453	113.001	104.049	103.476	103.595	121.739	128.925	129.140	192.118	126.466	46.646
13.000	232.202	289.928	282.216	303.559	314.255	314.947	315.210	292.864	290.214	274.696	224.681	305.875	186.126	128.304	136.564	114.887	104.192	103.476	103.715	125.439	128.591	144.109	193.479	113.121	45.338
14.000	244.998	305.421	274.123	299.763	314.231	314.995	315.186	289.092	290.357	260.539	223.917	314.493	173.234	113.312	144.562	118.468	104.502	103.691	103.691	129.116	128.567	157.573	194.529	105.386	34.600
15.000	269.086	314.446	266.341	295.514	313.777	314.828	314.971	285.272	290.095	246.526	223.106	319.340	150.435	104.073	152.822	122.933	105.075	104.192	104.144	133.342	128.877	171.778	195.222	100.707	29.952
16.000	288.209	320.390	257.531	290.500	313.109	314.278	314.637	280.712	289.808	230.077	222.628	322.825	132.148	98.486	161.966	128.471	105.410	104.359	104.335	137.901	129.331	189.396	195.938	96.958	39.833
17.000	300.623	324.090	249.247	284.246	312.392	313.705	314.231	275.842	289.307	225.517	221.912	324.854	118.397	94.929	171.205	134.320	105.887	105.123	104.741	142.628	129.856	192.619	196.535	94.834	52.331
18.000	310.196	326.382	241.250	277.728	312.130	312.822	313.491	270.495	288.352	243.016	221.363	326.884	108.919	92.136	179.537	140.504	106.651	105.983	105.386	147.857	130.596	174.332	196.821	93.258	50.075
19.000	316.188	328.579	237.478	270.304	311.103	311.533	312.870	264.837	287.349	258.820	220.551	328.507	102.354	90.489	185.219	147.857	107.272	107.105	106.054	153.586	131.575	158.934	197.322	92.160	36.089
20.000	320.820	330.465	240.319	263.070	310.483	309.599	311.652	259.417	286.323	271.402	220.886	328.961	98.367	89.056	180.420	155.234	108.179	108.633	107.057	159.340	132.363	147.403	197.275	90.751	28.012
21.000	324.234	331.467	245.857	256.147	309.408	308.310	310.697	253.592	285.487	281.238	220.504	329.152	95.049	87.958	170.536	162.682	109.253	110.614	108.298	165.260	133.509	137.710	197.895	90.584	36.043
22.000	326.812	332.398	251.921	248.412	308.238	305.398	308.692	247.672	284.174	287.588	220.265	330.799	92.446	87.218	161.488	170.489	110.590	113.025	110.065	171.229	134.464	130.214	197.943	89.414	50.301
23.000	328.889	332.852	257.675	241.035	307.093	302.485	306.949	241.894	283.100	293.461	220.384	330.751	91.300	86.144	153.634	177.460	111.617	115.651	112.142	176.887	135.490	124.580	198.182	88.889	53.098
24.000	330.393	332.398	263.046	233.849	305.421	299.405	304.466	236.547	282.240	298.068	220.193	331.730	89.725	86.048	146.806	184.693	113.192	118.946	114.410	182.879	136.732	120.402	198.110	88.078	40.691
25.000	331.252	333.640	266.532	228.048	303.559	296.493	301.769	232.178	280.474	301.100	219.907	331.491	88.483	86.430	141.721	191.282	114.696	121.763	116.941	187.701	138.092	117.442	198.182	88.173	28.193
26.000	331.038	333.138	269.492	226.162	302.939	295.824	300.289	231.557	280.092	300.766	220.098	331.730	88.531	86.550	139.382	193.192	115.699	122.813	118.755	188.680	138.451	117.848	198.492	88.937	32.344
27.000	331.133	332.947	270.041	226.735	302.270	295.824	299.763	232.345	280.450	300.098	220.551	331.778	88.388	85.953	138.522	192.906	115.866	122.790	119.280	187.749	138.379	118.540	198.349	88.698	47.459
28.000	331.038	333.783	271.115	227.451	302.366	295.944	299.859	232.894	280.736	299.835	220.647	331.849	88.221	86.048	137.591	192.166	116.177	122.503	119.423	187.200	138.045	118.898	198.564	87.910	54.407
29.000	331.014	333.664	271.068	228.048	302.580	296.063	299.119	233.347	280.689	299.644	220.360	332.709	87.767	86.311	137.376	191.235	116.272	122.431	119.567	186.532	137.973	118.898	198.206	88.841	44.571
30.000	331.873	333.353	272.691	226.830	302.151	295.180	298.665	232.321	280.760	301.936	220.432	331.969	87.600	86.215	136.159	192.452	116.606	123.315	120.617	187.558	138.427	117.012	198.253	88.794	30.674
31.000	332.327	333.520	274.553	223.607	300.408	292.721	296.373	229.504	279.304	302.891	220.074	331.706	87.958	86.215	134.297	195.938	117.800	125.630	122.527	190.805	139.405	115.293	198.206	88.436	29.682
32.000	329.748	334.332	276.296	221.888	299.477	291.455	294.965	231.700	279.853	299.620	220.265	331.157	89.964	86.001	132.291	197.060	119.018	126.991	124.150	188.680	138.880	118.731	198.516	89.438	42.766
33.000	327.385	333.234	277.131	221.984	298.928	291.288	295.180	236.737	281.524	292.410	220.504	329.510	92.422	86.860	131.814	197.179	119.471	126.824	124.150	183.022	137.543	126.012	198.015	91.372	53.730
34.000	324.258	332.231	277.442	222.533	299.381	293.365	296.636	243.255	282.813	282.527	221.554	326.645	96.266	86.955	131.527	196.678	119.352	125.511	122.813	176.194	135.705	137.352	197.179	93.425	48.000
35.000	319.101	331.634	276.749	224.896	299.763	294.774	298.307	249.271	284.651	267.677	222.008	323.470	100.754	87.505	132.697	194.314	118.325	123.912	120.880	169.390	134.320	151.700	196.344	96.362	34.239
36.000	313.491	330.298	276.129	229.743	301.506	296.946	300.145	255.239	285.869	249.796	223.034	319.602	106.365	89.152	133.437	188.967	117.036	121.596	118.946	163.231	133.318	169.367	195.389	100.205	29.230
37.000	305.087	329.486	274.195	235.687	302.819	298.761	301.984	260.396	286.848	230.960	223.870	314.828	113.574	90.131	135.610	182.449	115.818	119.781	116.797	157.812	132.196	187.678	194.672	105.266	38.164
38.000	295.371	327.695	272.524	242.801	304.371	301.005	304.180	265.744	287.469	226.806	224.013	308.167	123.816	91.754	137.758	175.621	114.625	117.967	114.911	153.133	131.456	193.097	194.052	110.757	50.166
39.000	281.333	325.594	269.325	250.250	305.016	302.843	306.090	269.396	287.660	243.446	224.658	302.580	139.286	94.332	140.671	168.722	113.383	115.723	113.049	149.194	131.050	176.553	193.527	116.893	48.812
40.000	260.897	323.350	266.245	257.102	306.090	305.087	307.355	273.240	287.898	256.720	225.039	295.753	159.077	96.720	144.777	161.608	112.261	113.789	111.497	145.589	130.811	162.443	193.025	124.676	39.337
41.000	238.289	320.629	261.996	262.879	307.260	306.758	309.050	276.057	288.089	266.746	225.732	288.447	181.852	99.179	149.767	154.899	111.211	111.855	110.113	142.270	130.596	151.772	192.595	131.432	32.118
42.000	221.148	316.833	257.221	269.062	308.238	308.501	310.292	278.850	288.710	274.768	226.090	280.927	198.492	102.163	154.684	149.265	110.304	110.256	108.752	139.429	130.453	143.965	192.428	137.925	36.675
43.000	232.369	313.156	252.470	273.717	308.907	309.766	311.199	281.643	288.591	280.879	226.520	274.123	186.890	105.696	160.462	144.586	109.516	108.704	107.892	137.328	130.310	138.164	191.903	145.063	45.022
44.000	244.186	309.552	246.812	278.253	310.077	311.318	312.225	284.007	288.614	285.248	226.520	267.391	176.027	109.969	166.932	140.337	108.919	107.439	107.081	134.869	130.238	133.604	191.832	151.557	46.421
45.000	254.093	304.753	241.751	282.193	310.697	312.488	312.392	285.702	288.495	288.782	226.711	261.088	165.571	115.389	173.926	136.326	108.060	106.460	106.436	132.649	130.190	129.975	191.569	158.170	41.458
46.000	262.115	298.761	237.072	285.153	311.103	313.085	313.133	287.301	288.805	291.384	227.116	254.977	156.833	120.569	180.253	133.055	107.534	105.672	105.935	131.074	130.238	127.349	191.259	164.473	36.765
47.000	269.158	292.100	232.942	287.898	311.485	313.873	313.682	289.187	288.949	293.867	227.116	248.794	150.077	126.967	185.911	130.453	107.176	105.171	105.457	129.259	130.166	125.057	191.235	169.677	37.532
48.000	275.102	284.198	231.127	290.429	311.819	313.849	313.873	290.835	289.068	295.633	227.331	243.374	144.252	134.774	189.564	128.137	106.579	104.741	105.219	127.731	130.262	123.339	191.091	174.977	41.683
49.000	280.689	275.675	231.605	292.577	312.560	314.231	314.016	292.530	288.853	297.090	227.761	238.791	139.047	143.225	189.826	126.012	106.245	104.502	104.908	126.251	130.143	121.787	190.518	179.943	43.849
50.000	285.415	267.128	234.517	294.392	312.846	314.613	314.804	293.938	288.949	298.570	227.642	233.515	134.273	152.727	186.221	123.959	105.983	104.288	104.598	124.914	130.190	120.259	190.638	185.505	41.638
51.000	289.378	257.364	238.743	296.588	312.989	314.899	314.708	294.989	288.996	299.883	227.976	228.191	130.525	162.372	181.208	122.264	105.625	103.953	104.502	123.983	130.262	118.970	190.375	191.044	39.202
52.000	291.742	247.767	243.064	297.495	313.061	314.756	314.995	296.063	288.686	300.933	228.048	223.703	127.660	171.563	176.075	120.617	105.338	103.882	104.359	122.957	130.238	118.110	190.328	195.245	39.157
53.000	294.272	237.907	247.361	298.856	313.467	315.210	315.138	296.612	288.662	301.602	227.952	220.360	125.583	180.897	171.611	119.399	105.243	103.739	104.264	122.360	130.238	117.346	190.304	198.588	40.465
54.000	295.466	227.618	251.539	299.716	313.586	315.114	315.114	297.161	289.020	302.652	228.310	218.498	123.601	190.877	167.504	118.707	105.123	103.810	104.120	121.548	130.238	116.487	190.184	200.808	40.916
55.000	297.400	220.575	254.977	301.053	314.207	315.377	315.400	297.830	288.805	302.557	228.215	218.307	122.145	199.232	163.732	117.728	104.837	103.667	104.097	121.262	130.381	116.129	189.946	201.381	40.149
56.000	298.761	228.573	258.343	301.267	313.777	315.257	315.090	297.901	288.996	303.750	228.310	219.859	120.856	191.617	160.366	117.036	104.908	103.619	103.929	120.736	130.119	115.484	189.922	200.307	40.285
57.000	300.098	237.621	261.184	301.936	313.920	315.424	315.377	298.188	289.068	304.132	228.477	221.100	119.662	182.091	157.263	116.582	104.574	103.452	103.810	120.545	130.214	115.269	189.874	198.349	40.916
58.000	300.766	246.144	263.738	302.819	314.255	315.424	315.066	298.403	288.901	304.299	228.191	222.963	118.755	173.353	154.684	115.986	104.574	103.476	103.810	120.331	130.214	114.744	189.778	196.726	40.510
59.000	301.864	253.497	266.126	303.488	314.350	315.615	315.639	298.952	288.877	304.514	228.382	224.944	117.895	166.191	152.416	115.556	104.550	103.357	103.810	119.949	130.286	114.338	189.778	195.054	39.563
60.000	302.413	259.966	268.274	303.559	314.517	315.472	315.448	298.832	288.805	304.944	228.358	226.782	117.251	159.602	150.674	115.150	104.455	103.357	103.810	119.877	130.214	113.861	189.778	193.168	39.112
61.000	303.082	265.386	270.375	303.965	314.231	315.735	315.496	299.214	288.686	305.803	228.716	228.215	116.368	154.088	148.453	114.792	104.311	103.380	103.882	119.758	130.357	113.694	189.755	191.521	40.285
62.000	303.989	269.563	272.046	304.132	314.302	315.544	315.663	299.525	288.782	305.421	229.002	229.528	115.795	149.576	146.926	114.434	104.359	103.428	103.810	119.543	130.238	113.503	189.659	189.898	42.089
63.000	304.061	273.694	273.574	304.466	314.493	315.281	315.448	298.999	289.020	305.947	228.334	231.079	115.126	145.636	145.493	114.123	104.311	103.428	103.786	119.567	130.405	113.049	189.683	188.537	41.638
64.000	304.729	277.060	274.792	304.705	314.756	315.735	315.591	299.525	288.686	306.185	228.644	232.536	115.126	142.390	144.347	114.076	104.359	103.452	103.691	119.495	130.357	112.882	189.683	187.224	39.563
65.000	305.421	280.187	276.344	304.896	314.875	315.591	315.615	299.596	288.686	306.305	228.668	233.682	114.314	139.477	142.915	113.765	104.240	103.452	103.667	119.352	130.357	112.619	189.373	185.624	38.976
66.000	305.230	282.479	277.466	305.063	314.446	315.448	315.472	299.620	288.686	306.472	228.764	235.090	114.147	136.970	141.673	113.503	104.192	103.380	103.762	119.328	130.310	112.428	189.420	184.335	39.698
67.000	305.589	284.699	278.301	305.517	314.971	315.568	315.448	299.525	288.686	306.734	228.955	236.117	113.550	134.965	140.790	113.407	104.120	103.404	103.834	119.185	130.286	112.118	189.277	183.070	42.766
68.000	305.899	286.609	279.232	305.565	314.756	315.591	315.496	299.716	288.710	306.925	228.525	237.358	113.694	132.936	139.692	113.264	104.073	103.261	103.571	118.898	130.357	111.903	189.420	182.067	42.856
69.000	305.899	288.065	279.996	305.565	314.684	315.735	315.615	299.835	288.662	307.188	228.692	238.361	112.978	131.479	138.928	113.097	104.144	103.357	103.667	119.065	130.286	111.760	189.301	181.088	40.059
70.000	306.878	289.402	281.023	305.732	314.732	315.663	315.782	300.074	288.758	307.116	228.859	239.602	112.906	130.310	138.045	113.025	104.001	103.476	103.619	119.018	130.310	111.569	189.301	180.086	38.435
71.000	307.093	289.999	281.667	305.851	314.971	315.926	315.854	300.169	288.805	307.331	229.098	240.700	112.357	129.235	137.448	112.906	104.001	103.380	103.500	118.898	130.262	111.497	189.349	178.916	39.021
72.000	307.116	291.288	282.479	306.090	315.186	315.568	315.353	300.121	288.758	307.260	229.217	241.536	112.118	128.161	136.779	112.715	104.049	103.428	103.715	118.779	130.310	111.426	189.349	178.128	42.541
73.000	307.522	291.933	282.694	306.042	314.804	315.687	315.878	300.121	288.710	307.355	229.408	242.252	112.023	127.516	136.206	112.572	104.025	103.261	103.524	118.779	130.334	111.330	189.277	177.388	43.849
74.000	307.522	292.697	283.315	306.209	315.090	315.759	315.663	300.265	288.424	307.379	228.883	243.064	111.855	126.609	135.490	112.524	104.097	103.166	103.571	118.755	130.286	111.068	189.301	176.242	40.871
75.000	308.047	293.676	284.389	306.233	314.780	315.711	315.830	300.145	288.280	307.856	229.074	243.852	111.664	126.060	135.180	112.476	104.073	103.404	103.595	118.707	130.357	111.068	189.182	175.669	38.299
76.000	307.546	294.535	284.651	306.018	314.708	315.472	315.735	300.169	288.471	308.191	229.122	244.807	111.497	125.153	134.511	112.452	103.953	103.309	103.452	118.683	130.286	110.996	189.325	174.714	38.390
77.000	308.215	294.941	285.296	306.448	315.042	315.711	315.663	300.289	288.495	308.238	228.979	245.284	111.211	124.676	134.177	112.381	103.953	103.357	103.619	118.612	130.429	110.781	189.205	173.855	41.819
78.000	308.573	295.705	285.368	306.281	314.851	315.687	315.926	300.074	288.686	308.286	229.002	246.406	111.044	124.031	133.843	112.261	104.001	103.285	103.500	118.612	130.453	110.638	189.229	173.067	43.849
79.000	308.501	296.254	285.726	306.758	314.732	315.782	315.830	300.336	288.782	308.119	228.931	247.122	111.092	123.434	133.294	112.118	104.049	103.428	103.691	118.659	130.429	110.638	189.205	172.255	41.954
80.000	308.406	296.851	286.227	306.448	314.541	315.568	315.520	300.289	288.829	308.406	229.098	247.839	110.972	122.981	132.840	112.142	104.097	103.333	103.595	118.612	130.286	110.686	189.158	171.730	38.435
81.000	308.573	296.755	286.418	306.496	314.947	315.926	315.926	300.289	288.925	308.931	229.170	248.340	110.662	122.766	132.291	111.975	104.073	103.428	103.548	118.468	130.334	110.566	189.158	170.990	37.668
82.000	308.979	297.352	287.015	306.400	314.971	316.117	315.950	300.408	288.424	308.334	228.955	249.128	110.471	122.312	132.196	112.023	103.929	103.309	103.452	118.301	130.429	110.399	189.182	170.345	40.646
83.000	308.907	297.615	287.325	306.663	314.684	315.735	315.759	300.336	288.638	308.597	229.050	249.796	110.471	122.002	131.838	111.975	104.001	103.452	103.595	118.516	130.357	110.184	189.062	169.653	43.759
84.000	309.361	297.997	287.373	306.711	314.851	315.544	315.735	300.790	288.352	308.907	229.384	250.274	110.160	121.572	131.551	111.760	103.953	103.452	103.619	118.301	130.429	110.137	189.086	168.794	43.172
85.000	309.623	298.116	287.994	306.591	314.899	315.735	315.782	300.671	288.591	309.026	229.146	251.014	110.232	121.071	131.121	111.855	104.049	103.285	103.476	118.397	130.238	110.137	189.062	168.388	39.292
86.000	309.886	298.570	288.352	306.830	314.780	315.878	315.854	300.623	288.973	309.074	229.217	251.730	110.184	120.951	130.835	111.855	103.953	103.428	103.643	118.421	130.357	110.065	189.158	167.528	36.946
87.000	309.146	298.928	288.758	306.997	314.923	315.663	315.496	300.480	288.519	309.050	229.217	252.470	110.041	120.665	130.477	111.736	103.810	103.261	103.571	118.349	130.453	109.922	189.158	166.908	39.563
88.000	309.552	299.334	288.614	306.854	314.756	315.520	315.782	300.551	288.758	308.979	229.122	252.971	109.778	120.354	130.262	111.617	104.001	103.333	103.548	118.325	130.357	109.874	189.014	166.454	43.984
89.000	309.623	299.358	289.283	306.949	314.828	315.615	315.902	300.456	288.591	309.122	229.217	253.664	109.755	119.901	130.119	111.593	104.001	103.404	103.548	118.206	130.286	109.707	189.134	166.000	43.894
