-----------------------------------------------------
BloodHound 307 VOC Analyser V2017.1
RoboScientific Ltd 
Espace North
Wisbech Road
Littleport
Cambridgeshire, UK
CB6 1RA 
-----------------------------------------------------
Date = 08/04/2022
Time = 12:09:07
Data is protected by RoboScientific Limited
-----------------------------------------------------
Name of the experiment = "47b_Day 38"
-----------------------------------------------------
Repeat No. = 4/4
-----------------------------------------------------
Experimental Time (in sec) and Flow Profile :
-----------------------------------------------------
Baseline = 2.00
Absorb = 4.00
Pause = 1.00
Desorb = 5.00
Flush = 20.00
Wait = 5.00
Higher Flow (V) = 4.00
Medium Flow (V) = 3.00
Low Flow (V) = 1.00
-----------------------------------------------------
Total Profile Time = 37 in sec
-----------------------------------------------------
Acquired data point per second = 4
--------------------------------------------------
Total data point stored  = 128
-----------------------------------------------------
Acquired sensor responses from 24 sensors
-----------------------------------------------------

Data Points	 Sen-1	 Sen-2	 Sen-3	 Sen-4	 Sen-5	 Sen-6	 Sen-7	 Sen-8	 Sen-9	 Sen-10	 Sen-11	 Sen-12	 Sen-13	 Sen-14	 Sen-15	 Sen-16	 Sen-17	 Sen-18	 Sen-19	 Sen-20	 Sen-21	 Sen-22	 Sen-23	 Sen-24	Humidity (%r.h.)
0.000	313.133	306.400	294.583	307.880	314.899	315.615	315.854	301.673	288.614	311.796	230.172	276.558	106.508	112.954	124.890	110.614	103.762	103.428	103.333	117.251	130.453	107.320	187.845	142.270	46.692
1.000	312.870	306.496	294.487	308.310	315.066	315.663	315.806	301.267	288.662	311.843	230.602	277.179	106.460	113.121	124.747	110.614	103.858	103.380	103.476	117.227	130.381	107.391	187.869	142.008	39.924
2.000	313.013	306.424	294.559	308.000	314.804	315.759	315.902	301.697	288.853	311.676	230.292	277.227	106.651	112.858	124.580	110.614	103.929	103.476	103.500	117.179	130.310	107.248	187.845	142.032	33.787
3.000	313.085	306.424	294.416	307.785	315.257	315.926	315.997	301.673	288.209	311.318	230.077	277.394	106.484	112.930	124.556	110.423	103.667	103.118	103.357	117.251	130.572	107.200	187.749	141.769	38.074
4.000	313.109	306.376	294.559	308.215	315.305	315.997	316.093	301.602	288.495	311.605	230.339	277.489	106.532	112.930	124.556	110.590	103.810	103.237	103.452	117.227	130.357	107.296	187.797	141.721	45.744
5.000	312.774	306.734	294.726	308.071	314.995	315.735	315.782	301.458	288.495	311.676	230.626	277.848	106.293	112.858	124.389	110.566	103.715	103.357	103.500	117.227	130.429	107.343	187.845	141.435	46.105
6.000	313.371	306.687	294.726	308.047	315.448	315.878	315.973	301.530	288.614	311.605	230.459	277.657	106.436	112.858	124.437	110.471	103.667	103.237	103.500	117.322	130.429	107.272	187.845	141.578	38.615
7.000	312.846	306.949	294.798	308.238	315.400	315.687	315.591	301.578	288.447	311.652	230.148	277.704	106.269	112.882	124.246	110.495	103.691	103.285	103.548	117.227	130.525	107.343	187.749	141.435	33.833
8.000	312.989	306.472	295.108	308.382	315.329	315.997	315.854	301.482	288.376	311.581	230.125	278.062	106.245	112.787	124.270	110.495	103.762	103.380	103.428	117.299	130.453	107.248	187.940	141.244	39.021
9.000	313.156	306.591	294.869	308.286	314.995	315.687	315.759	301.411	288.137	311.533	230.148	278.110	106.388	112.787	124.270	110.590	103.667	103.213	103.428	117.155	130.238	107.296	187.773	141.315	46.827
10.000	311.891	305.565	294.845	307.856	314.851	315.568	315.854	301.697	288.829	311.151	229.743	276.176	107.343	113.980	124.031	110.566	103.762	103.404	103.452	117.346	130.119	107.415	188.083	143.345	45.112
11.000	298.164	271.187	293.031	307.212	314.804	315.639	315.615	300.647	289.641	307.475	228.024	266.579	122.217	151.247	125.893	111.139	103.786	103.428	103.643	118.349	129.140	111.020	189.659	154.255	40.465
12.000	268.871	261.781	288.018	305.923	314.947	315.806	315.591	297.639	289.999	293.150	226.281	291.814	149.647	155.043	130.811	112.405	104.097	103.333	103.548	120.784	128.877	125.583	191.760	126.681	46.421
13.000	238.504	290.763	280.617	303.273	314.278	315.257	315.400	293.962	290.572	278.134	225.063	306.615	178.630	127.588	137.925	114.816	104.288	103.428	103.524	124.437	128.591	140.456	192.858	112.643	40.961
14.000	243.971	306.114	271.497	299.405	313.944	314.995	315.233	289.713	290.453	264.311	224.371	315.424	176.600	112.667	147.069	118.564	104.526	103.691	103.882	128.591	128.400	153.992	193.885	105.290	30.404
15.000	269.802	315.735	262.282	295.251	313.514	314.732	315.138	285.750	290.095	249.772	223.368	320.653	149.576	103.571	156.857	123.482	105.099	104.049	104.216	132.769	128.758	168.865	194.983	100.038	34.600
16.000	288.233	320.987	252.160	289.474	313.085	314.159	314.804	280.999	289.355	232.488	222.963	323.661	130.310	97.699	167.313	129.020	105.601	104.455	104.383	137.472	129.283	187.391	195.675	96.505	48.812
17.000	301.936	324.926	243.112	283.267	312.679	313.849	314.278	275.914	288.996	226.018	222.294	325.714	116.296	94.046	176.696	135.371	106.221	104.980	104.932	142.270	129.928	190.948	196.463	94.189	52.692
18.000	311.008	327.791	236.570	275.556	311.557	312.512	313.514	270.351	287.922	245.642	221.506	327.600	107.057	91.372	185.242	142.509	106.985	105.935	105.410	148.000	130.668	172.757	196.893	92.566	39.518
19.000	317.716	329.534	237.406	268.131	310.602	311.509	312.679	264.407	287.230	261.542	221.148	328.483	101.184	89.582	182.760	150.101	108.083	107.272	106.269	154.016	131.551	157.287	197.036	90.990	28.238
20.000	322.037	330.274	243.876	260.659	309.766	310.220	311.628	258.629	286.179	274.338	221.220	329.725	96.791	88.459	173.043	157.812	108.609	108.824	107.487	160.032	132.625	144.371	197.370	90.966	35.773
21.000	325.547	331.276	251.276	252.971	308.931	307.880	310.244	252.876	285.057	283.267	220.933	329.820	94.141	87.123	162.658	166.048	110.208	110.948	108.967	166.478	133.652	135.037	197.704	89.534	50.662
22.000	326.955	332.279	258.271	245.404	306.806	304.872	308.238	246.502	283.816	290.381	221.053	330.775	91.539	87.170	153.419	173.234	111.641	113.431	110.399	172.327	134.750	127.612	197.681	89.414	51.835
23.000	329.056	332.804	263.953	237.191	305.135	302.175	306.066	240.557	283.004	295.800	220.695	331.157	89.605	86.932	145.398	181.208	113.336	116.224	112.691	178.773	135.968	122.121	197.561	89.295	37.171
24.000	330.083	333.091	268.800	230.220	303.225	298.880	303.464	235.377	281.524	300.074	220.838	331.897	88.269	85.714	139.978	188.752	114.911	119.256	115.723	184.383	137.281	118.182	198.015	88.006	27.696
25.000	331.420	334.141	272.954	224.562	301.387	295.848	300.217	230.435	280.498	302.986	220.360	332.327	87.576	86.597	135.037	194.625	117.036	122.622	118.540	189.396	138.451	114.887	197.967	87.672	37.713
26.000	331.897	333.138	275.556	223.416	300.336	294.607	298.355	229.480	279.447	303.703	220.456	332.279	87.791	85.642	133.222	196.057	118.325	123.744	120.569	190.566	139.119	114.744	197.800	87.791	53.008
27.000	331.491	334.093	275.962	223.440	300.193	294.822	297.782	230.459	279.471	302.962	220.623	333.138	87.743	86.024	132.578	196.176	118.827	123.697	121.238	189.874	138.976	115.771	198.134	87.624	50.121
28.000	332.040	333.974	276.511	224.037	299.954	295.347	297.854	230.984	279.734	302.676	220.336	332.542	87.839	85.022	132.124	195.771	118.874	123.386	121.333	189.182	139.000	115.771	198.182	87.457	34.690
29.000	332.542	333.759	276.749	224.538	299.620	295.538	297.281	231.438	280.139	302.031	220.838	332.756	87.505	85.213	132.506	194.959	118.898	123.219	121.739	188.513	138.474	116.272	198.039	88.269	28.148
30.000	331.921	334.284	278.086	223.941	298.904	294.272	296.779	230.459	279.877	304.299	220.790	332.852	86.741	85.857	131.360	195.723	119.734	124.222	122.551	189.468	138.952	114.386	198.086	87.505	40.239
31.000	332.494	334.666	279.256	221.745	297.591	291.933	294.296	227.880	278.755	305.636	220.360	332.207	87.099	84.831	129.832	197.418	121.262	126.753	124.819	192.214	140.146	113.049	198.564	88.269	53.911
32.000	331.133	334.308	280.784	222.581	295.657	289.760	291.957	228.215	278.564	304.013	220.336	331.778	88.531	85.666	127.540	195.818	122.981	128.591	126.848	191.760	140.122	114.529	198.230	89.200	48.271
33.000	329.390	334.595	282.575	222.939	294.272	289.641	291.909	232.512	280.020	298.283	221.005	330.035	90.966	86.215	126.657	195.532	123.983	129.020	127.421	187.081	138.451	120.545	197.943	90.536	32.208
34.000	325.953	332.995	282.909	222.079	294.511	290.596	292.864	239.149	282.240	289.020	221.339	328.364	93.186	86.884	126.514	196.487	123.601	127.731	125.965	180.444	136.708	129.379	196.988	91.778	29.411
35.000	321.846	332.040	283.171	221.148	295.705	293.007	295.060	245.929	283.410	275.842	221.984	324.926	97.269	86.884	127.206	197.585	122.622	125.702	123.768	172.948	135.084	142.103	196.296	94.356	42.270
36.000	317.000	331.611	281.763	223.416	297.400	294.678	297.209	252.518	285.224	260.110	222.819	320.557	103.166	87.815	128.352	195.818	121.142	123.912	121.811	166.502	133.843	159.053	195.222	98.271	53.279
37.000	310.029	330.011	280.569	228.979	299.238	296.946	299.811	258.391	286.299	241.536	223.703	317.668	109.349	89.080	130.095	190.089	119.614	121.715	119.423	160.462	132.578	177.603	194.505	102.545	45.654
38.000	300.981	328.889	278.158	235.424	300.885	299.310	302.031	263.165	287.015	221.912	224.395	311.581	119.137	91.109	132.100	182.807	117.752	119.328	116.941	155.114	131.933	198.063	193.694	108.418	32.569
39.000	286.728	326.764	276.296	243.088	302.604	301.458	304.084	267.701	287.540	234.684	225.302	305.159	132.148	92.900	134.607	175.263	116.033	117.084	114.696	150.507	131.169	183.547	193.312	114.147	32.028
40.000	267.391	324.472	273.097	250.632	303.989	303.798	306.281	271.831	287.779	250.321	225.565	297.854	150.912	95.049	137.830	167.528	114.625	114.768	112.715	146.567	130.739	168.316	192.715	120.975	43.308
41.000	244.353	321.727	269.325	257.985	305.278	305.803	307.880	274.768	288.161	262.951	225.732	290.811	174.714	97.627	141.984	160.772	113.360	112.906	111.092	143.368	130.692	156.761	192.404	128.495	49.579
42.000	223.894	318.910	265.075	264.622	306.734	307.809	309.193	277.991	288.567	271.999	225.923	283.506	195.938	100.492	146.902	153.992	112.094	111.020	109.683	140.575	130.453	147.021	191.879	136.206	42.811
43.000	229.432	315.162	259.489	269.731	307.761	309.241	310.268	280.617	288.901	278.588	226.520	275.938	189.325	104.240	152.273	148.143	110.996	109.444	108.489	137.782	130.381	140.050	191.617	143.416	35.006
44.000	241.584	310.841	254.738	275.126	308.597	310.602	311.342	282.718	288.543	283.673	226.949	268.847	177.412	108.083	158.743	143.297	110.041	107.892	107.606	135.466	130.310	134.893	191.306	150.459	35.998
45.000	252.757	306.114	248.770	279.161	309.193	311.915	312.225	285.320	288.829	288.042	226.926	261.590	166.788	112.787	165.356	138.976	109.158	106.985	106.985	133.318	130.214	130.883	191.091	157.096	43.037
46.000	262.497	300.289	242.682	283.506	310.602	312.798	312.631	286.967	288.543	290.763	227.522	255.072	157.120	118.588	172.327	135.323	108.346	106.054	106.197	131.336	130.262	127.922	190.900	163.876	44.977
47.000	270.208	294.010	237.215	286.490	310.721	313.658	313.324	289.068	288.591	293.246	227.976	249.104	149.289	125.917	179.417	132.172	107.916	105.553	105.792	129.689	130.214	125.368	190.566	170.226	41.322
48.000	277.155	286.227	232.536	288.686	311.700	314.159	313.801	290.333	288.686	295.466	227.809	242.897	142.055	133.652	185.648	129.689	107.224	104.813	105.243	128.209	130.262	123.577	190.256	175.908	38.074
49.000	282.622	277.179	230.101	291.384	312.106	314.111	313.849	291.646	288.591	297.328	228.239	237.215	136.302	141.936	190.280	127.039	106.627	104.526	104.980	126.776	130.357	121.620	189.826	181.065	38.705
50.000	287.492	267.343	230.196	293.747	312.512	314.804	314.422	293.413	288.328	298.426	228.406	231.963	132.029	151.891	190.900	124.890	106.388	104.311	104.741	125.177	130.238	120.426	189.898	187.152	42.044
51.000	291.145	257.818	233.538	295.777	312.536	314.660	314.613	294.702	288.495	300.002	228.382	225.660	128.328	161.202	186.914	122.766	105.815	104.025	104.670	124.222	130.190	118.874	189.755	192.858	42.044
52.000	294.177	248.054	237.979	297.352	312.989	315.210	314.828	295.657	288.638	301.267	228.453	221.602	125.774	171.778	181.709	121.142	105.553	103.810	104.383	123.171	130.334	117.848	189.755	197.466	40.149
53.000	295.991	236.523	242.467	298.976	313.514	315.496	314.732	296.493	288.471	301.817	228.621	218.618	123.530	182.998	176.385	119.949	105.529	103.762	104.288	122.240	130.334	116.917	189.420	200.474	39.653
54.000	297.400	225.111	246.955	299.692	313.228	314.947	314.613	297.066	288.543	302.724	228.955	218.785	121.548	193.264	171.826	118.636	105.123	103.810	104.192	121.476	130.310	116.105	189.468	201.285	40.285
55.000	299.787	224.658	250.990	300.623	313.777	315.663	315.186	297.734	288.591	303.177	228.883	220.074	120.283	195.842	168.221	117.967	105.099	103.595	104.097	121.023	130.334	115.556	189.516	199.901	40.285
56.000	300.145	235.974	254.690	301.124	313.705	315.210	315.019	298.188	288.949	304.156	228.764	222.079	118.898	184.120	164.401	117.203	104.837	103.595	104.120	120.593	130.310	115.031	189.373	197.633	39.563
57.000	301.458	246.406	257.794	301.817	313.944	315.496	315.496	298.737	288.495	304.323	228.931	224.323	117.824	173.186	160.844	116.630	104.861	103.500	103.858	120.163	130.357	114.601	189.062	195.365	40.510
58.000	302.604	255.263	260.277	302.676	313.968	315.496	315.210	298.904	288.686	304.992	229.289	226.758	116.797	164.067	158.242	116.177	104.622	103.524	103.786	119.781	130.405	114.028	189.205	192.810	41.638
59.000	303.679	263.142	263.261	303.153	314.469	315.496	315.257	299.190	288.782	305.254	228.979	229.313	116.033	156.356	155.544	115.484	104.526	103.452	103.786	119.710	130.381	113.670	189.182	190.495	41.007
60.000	303.989	269.062	265.839	303.750	314.422	315.448	315.377	299.429	288.853	305.421	228.812	230.674	115.508	150.387	153.085	115.007	104.526	103.548	103.858	119.495	130.381	113.121	189.110	188.656	39.382
61.000	304.443	273.813	267.677	304.037	314.278	315.353	315.400	299.501	289.044	305.994	228.979	232.727	114.816	145.732	150.960	114.744	104.431	103.428	104.025	119.471	130.357	113.001	189.158	187.057	39.021
62.000	304.872	277.609	269.420	304.204	314.565	315.400	315.233	299.668	288.662	306.042	229.146	233.873	114.291	141.912	149.241	114.386	104.335	103.404	103.715	119.113	130.429	112.858	189.158	185.648	41.322
63.000	305.684	280.689	271.378	304.777	314.326	315.448	315.329	299.716	288.686	306.496	229.695	235.401	113.741	138.474	147.642	114.147	104.288	103.500	103.619	118.970	130.310	112.524	188.871	183.882	42.992
64.000	305.923	283.553	273.025	304.801	314.971	315.782	315.305	299.716	288.567	306.925	229.695	237.024	113.288	135.681	146.185	113.765	104.192	103.380	103.667	118.994	130.405	112.237	188.704	182.354	41.097
65.000	306.257	285.535	274.147	305.087	314.899	315.448	315.377	299.787	288.495	307.045	229.217	238.385	113.025	133.867	144.920	113.789	104.216	103.428	103.762	118.946	130.477	111.999	188.728	181.208	39.157
66.000	307.021	287.588	275.245	304.992	314.732	316.045	315.591	300.074	288.352	306.854	229.575	239.769	112.643	131.933	143.750	113.503	104.359	103.500	103.762	118.755	130.453	111.688	188.728	179.680	38.796
67.000	306.973	289.068	276.487	305.087	314.565	315.591	315.448	300.098	288.829	307.307	229.313	241.035	112.405	130.262	142.390	113.407	104.359	103.357	103.667	118.755	130.357	111.545	188.776	178.200	42.450
68.000	307.307	290.548	277.561	305.350	314.875	315.735	315.759	300.360	288.400	307.379	229.432	242.157	111.999	129.020	141.482	113.121	104.120	103.452	103.715	118.492	130.501	111.211	188.680	177.340	43.804
69.000	307.785	291.694	278.277	305.851	314.780	315.782	315.568	300.360	288.662	307.785	229.552	243.016	111.736	127.779	140.695	113.001	104.216	103.476	103.691	118.516	130.405	111.211	188.704	176.481	40.600
70.000	307.952	292.745	279.041	305.947	314.780	315.663	315.759	300.098	288.424	308.119	229.552	243.900	111.760	126.824	139.740	112.930	104.168	103.571	103.691	118.540	130.334	111.068	188.680	175.311	38.074
71.000	308.429	293.556	280.139	305.684	314.732	315.973	315.663	300.671	288.734	307.785	229.504	244.926	111.283	126.012	139.071	112.739	104.144	103.571	103.643	118.421	130.381	110.757	188.656	174.356	38.796
72.000	308.262	294.511	280.689	305.875	314.804	315.639	315.544	300.503	288.686	308.047	229.743	245.714	111.068	125.248	138.331	112.691	104.144	103.476	103.643	118.349	130.405	110.662	188.680	173.425	43.127
73.000	308.262	295.442	281.047	306.376	314.684	315.496	315.639	300.694	288.805	307.976	229.862	247.003	110.996	124.485	137.710	112.667	104.264	103.404	103.548	118.397	130.453	110.686	188.585	172.422	43.804
74.000	308.692	296.039	281.858	305.875	314.995	315.878	315.353	300.480	288.543	308.167	229.432	247.958	110.829	123.482	136.875	112.381	103.953	103.380	103.643	118.301	130.429	110.471	188.489	171.396	40.104
75.000	308.692	296.612	282.742	306.543	314.995	315.568	315.568	300.575	288.638	308.716	229.456	248.674	110.542	123.148	136.612	112.452	104.097	103.261	103.571	118.301	130.596	110.447	188.465	170.441	37.397
76.000	308.883	297.304	283.649	306.567	314.971	315.544	315.424	300.503	288.376	308.191	229.647	249.892	110.519	122.551	135.896	112.166	103.977	103.285	103.619	118.158	130.429	110.232	188.442	169.605	38.886
77.000	309.480	297.400	283.577	306.567	315.138	315.759	315.687	300.647	288.734	308.620	229.814	250.536	110.256	121.954	135.395	112.237	104.025	103.309	103.595	118.086	130.429	110.184	188.489	168.770	43.804
78.000	309.432	297.949	283.959	306.281	314.995	315.711	315.854	300.885	288.495	308.549	229.647	251.420	110.184	121.285	134.917	112.214	104.025	103.309	103.548	118.134	130.501	110.113	188.418	167.863	43.939
79.000	309.337	298.832	285.057	306.782	314.732	315.377	315.782	300.766	288.352	308.692	229.671	252.351	110.113	120.856	134.488	111.927	103.929	103.476	103.715	118.158	130.405	109.898	188.394	167.003	39.472
80.000	309.480	299.071	285.248	306.424	314.780	315.400	315.448	300.694	288.853	309.074	229.862	253.425	109.802	120.450	134.153	112.094	104.049	103.524	103.667	118.086	130.405	109.826	188.394	166.382	36.810
81.000	309.862	299.190	285.774	306.711	315.090	315.854	315.926	300.694	288.638	308.811	229.814	253.807	109.707	120.068	133.795	112.142	103.977	103.357	103.404	117.967	130.572	109.874	188.418	165.666	39.698
82.000	309.623	299.931	285.869	306.734	314.660	315.472	315.639	300.909	288.495	309.170	229.910	254.643	109.516	119.805	133.413	111.999	103.977	103.261	103.548	117.967	130.477	109.802	188.394	164.950	44.210
83.000	310.077	299.763	286.251	306.687	314.851	315.854	315.973	300.790	288.495	309.098	229.934	255.096	109.492	119.614	132.936	111.760	103.762	103.309	103.643	118.039	130.501	109.850	188.298	164.282	43.443
84.000	310.220	300.145	286.561	306.973	314.971	315.878	315.997	300.862	288.543	309.289	229.838	255.717	109.229	119.280	132.649	111.760	103.953	103.476	103.619	117.943	130.572	109.683	188.322	163.589	38.841
85.000	310.315	300.360	286.872	307.045	315.114	315.711	315.782	301.005	288.304	309.217	229.838	256.481	109.301	119.113	132.363	111.879	103.834	103.261	103.571	117.895	130.572	109.516	188.251	162.825	36.585
86.000	310.602	300.766	287.301	306.949	314.684	315.687	315.950	301.267	288.591	309.337	229.910	257.412	109.158	118.516	132.005	111.760	103.882	103.261	103.595	117.895	130.572	109.540	188.346	162.133	40.961
87.000	310.339	301.029	287.636	307.069	314.995	315.711	315.663	301.053	288.447	309.265	229.790	257.436	109.206	118.492	131.670	111.712	103.882	103.380	103.595	117.919	130.572	109.349	188.227	161.632	44.887
88.000	310.793	301.291	287.803	306.687	314.756	315.544	315.759	301.029	288.877	309.695	230.077	258.391	109.038	118.254	131.360	111.688	103.906	103.524	103.571	117.776	130.525	109.325	188.298	160.963	42.902
89.000	310.411	301.745	288.328	307.355	314.828	315.377	315.878	300.838	288.662	309.957	230.053	259.202	109.038	118.086	131.074	111.593	103.929	103.357	103.619	117.919	130.501	109.349	188.322	160.462	37.532
