-----------------------------------------------------
BloodHound 307 VOC Analyser V2017.1
RoboScientific Ltd 
Espace North
Wisbech Road
Littleport
Cambridgeshire, UK
CB6 1RA 
-----------------------------------------------------
Date = 08/04/2022
Time = 12:23:18
Data is protected by RoboScientific Limited
-----------------------------------------------------
Name of the experiment = "47b_Day 43"
-----------------------------------------------------
Repeat No. = 2/4
-----------------------------------------------------
Experimental Time (in sec) and Flow Profile :
-----------------------------------------------------
Baseline = 2.00
Absorb = 4.00
Pause = 1.00
Desorb = 5.00
Flush = 20.00
Wait = 5.00
Higher Flow (V) = 4.00
Medium Flow (V) = 3.00
Low Flow (V) = 1.00
-----------------------------------------------------
Total Profile Time = 37 in sec
-----------------------------------------------------
Acquired data point per second = 4
--------------------------------------------------
Total data point stored  = 128
-----------------------------------------------------
Acquired sensor responses from 24 sensors
-----------------------------------------------------

Data Points	 Sen-1	 Sen-2	 Sen-3	 Sen-4	 Sen-5	 Sen-6	 Sen-7	 Sen-8	 Sen-9	 Sen-10	 Sen-11	 Sen-12	 Sen-13	 Sen-14	 Sen-15	 Sen-16	 Sen-17	 Sen-18	 Sen-19	 Sen-20	 Sen-21	 Sen-22	 Sen-23	 Sen-24	Humidity (%r.h.)
0.000	312.583	306.472	294.010	308.167	315.042	315.735	315.782	301.697	288.519	312.154	230.244	279.208	106.603	112.739	124.986	110.328	103.667	103.261	103.452	116.893	130.477	107.057	187.725	140.384	42.856
1.000	312.512	306.663	294.368	308.549	315.138	315.639	315.735	301.769	288.614	311.963	230.459	279.017	106.460	112.667	124.867	110.328	103.786	103.428	103.476	116.869	130.429	107.152	187.630	140.313	34.915
2.000	313.777	306.639	294.511	308.597	315.138	315.973	316.236	301.864	288.400	311.819	230.435	278.659	106.365	112.787	124.843	110.423	103.643	103.285	103.548	116.988	130.501	107.105	187.534	140.241	35.141
3.000	313.013	306.591	294.463	308.883	315.496	315.926	315.568	301.673	288.256	311.581	230.745	278.779	106.221	112.834	124.747	110.423	103.715	103.261	103.309	116.988	130.525	107.200	187.606	140.337	42.676
4.000	312.870	306.758	294.320	308.692	314.828	315.615	315.902	301.817	288.328	311.796	230.865	279.017	106.245	112.763	124.676	110.495	103.643	103.166	103.428	116.917	130.381	107.152	187.606	140.241	47.865
5.000	313.061	306.902	294.368	308.119	315.019	315.782	315.663	301.864	288.686	311.796	230.674	279.328	106.341	112.596	124.699	110.328	103.619	103.261	103.500	116.893	130.334	107.129	187.510	139.883	43.082
6.000	313.180	307.140	294.392	308.119	315.114	315.687	315.759	301.817	288.614	311.963	230.507	279.734	106.317	112.452	124.652	110.399	103.715	103.333	103.404	116.773	130.381	107.129	187.654	139.668	35.322
7.000	312.989	306.878	294.607	308.382	315.019	315.711	315.854	301.840	288.471	311.891	230.530	279.805	106.460	112.548	124.485	110.351	103.691	103.237	103.500	116.750	130.548	107.129	187.582	139.644	34.735
8.000	313.156	307.307	294.965	308.429	315.377	315.687	315.615	301.721	288.400	311.628	230.721	280.092	106.269	112.381	124.389	110.232	103.691	103.285	103.380	116.821	130.477	107.129	187.510	139.286	42.450
9.000	313.204	307.140	294.511	308.382	314.708	315.759	315.878	302.103	288.543	311.724	230.507	280.044	106.150	112.237	124.365	110.375	103.667	103.285	103.500	116.893	130.477	107.033	187.558	138.952	47.820
10.000	312.297	306.233	294.678	308.501	315.090	315.687	315.544	301.506	288.710	311.438	230.196	278.564	107.248	113.694	124.461	110.423	103.715	103.237	103.452	116.941	130.190	107.391	187.773	140.718	43.488
11.000	300.074	273.526	293.079	307.546	314.971	315.687	315.639	300.862	289.331	308.310	228.477	262.306	119.734	148.024	126.203	110.996	103.953	103.333	103.571	117.848	129.402	110.638	189.564	156.260	39.788
12.000	272.381	258.582	288.185	306.352	314.780	315.305	315.615	298.331	290.190	295.108	226.878	290.548	146.854	158.791	130.763	112.285	103.858	103.380	103.524	120.283	128.853	123.458	190.996	128.806	45.338
13.000	243.685	288.113	279.734	303.607	314.159	315.233	315.377	294.559	290.524	280.760	226.209	305.398	174.690	129.713	138.641	114.673	104.264	103.524	103.619	123.912	128.591	137.925	192.548	113.909	39.202
14.000	235.639	304.371	270.399	299.811	313.801	315.162	315.400	290.572	290.453	268.107	224.896	313.705	184.383	114.649	148.119	118.134	104.455	103.739	103.882	127.875	128.495	149.958	193.718	105.983	30.358
15.000	261.828	314.302	260.683	295.514	313.682	314.708	315.210	286.896	289.975	254.881	223.798	319.554	157.621	104.717	158.838	122.885	105.147	104.001	104.073	131.861	128.830	163.589	194.529	100.707	36.314
16.000	281.166	319.722	250.274	290.286	313.085	314.231	314.374	282.193	289.713	238.743	222.700	323.064	137.305	98.701	169.271	128.591	105.696	104.407	104.359	136.445	129.188	180.659	195.198	96.958	49.940
17.000	295.896	323.470	240.915	283.792	312.751	314.159	314.398	277.227	289.187	220.909	222.867	325.427	122.742	94.714	178.892	134.392	106.126	104.741	104.598	140.814	129.713	197.609	196.009	94.977	51.339
18.000	306.161	326.669	235.233	276.726	311.748	312.965	313.658	272.333	288.400	235.735	221.793	327.433	112.237	92.279	186.985	141.363	106.938	105.553	105.219	146.185	130.525	182.306	196.248	92.876	38.119
19.000	314.207	328.770	237.358	269.635	310.912	312.082	312.727	266.675	287.182	252.112	221.769	328.101	105.505	90.298	182.521	148.979	107.749	106.508	105.959	151.700	131.265	166.908	196.678	92.064	28.193
20.000	319.387	330.823	244.210	262.282	309.695	310.745	312.273	261.494	286.919	265.219	221.291	328.794	100.253	89.104	172.112	156.332	108.871	108.012	107.057	157.693	132.124	152.942	196.749	90.274	35.682
21.000	322.252	331.467	252.016	254.786	308.406	308.525	310.578	255.765	285.559	275.078	221.554	330.321	96.242	88.650	161.679	164.091	110.089	109.946	108.131	163.231	133.007	142.557	196.773	90.441	50.391
22.000	325.165	331.873	258.749	247.266	307.093	306.496	309.122	250.298	284.842	284.341	221.673	330.130	94.070	87.696	152.584	171.157	111.545	111.999	109.731	168.722	133.867	134.392	197.155	89.582	52.512
23.000	327.576	332.446	264.622	239.674	305.660	303.822	307.355	244.520	283.506	290.310	220.695	330.584	91.802	86.359	144.944	178.821	113.025	114.362	111.688	174.547	135.204	127.946	197.108	88.961	39.292
24.000	329.080	332.947	269.802	232.965	303.750	301.076	304.753	239.578	282.598	295.323	221.148	331.252	90.441	85.738	139.764	185.720	114.983	117.322	113.885	179.775	136.302	123.434	197.466	88.292	28.012
25.000	329.987	333.210	273.598	227.188	302.342	298.403	302.342	234.875	281.476	297.519	221.077	331.802	89.462	85.690	135.108	192.070	116.678	120.283	116.750	184.884	137.496	119.805	197.537	88.197	34.961
26.000	330.130	333.282	275.866	225.350	300.814	296.875	300.766	233.968	281.309	298.259	221.387	331.825	89.009	85.690	132.912	194.219	117.895	121.333	118.301	185.983	137.782	120.498	197.442	88.459	49.985
27.000	330.321	334.571	276.367	226.042	300.527	297.185	299.931	234.684	281.548	297.973	220.766	331.634	88.794	85.284	132.816	193.813	118.373	121.333	119.113	185.171	137.639	120.856	197.681	88.149	53.414
28.000	330.847	334.475	276.988	226.281	300.480	297.615	299.954	235.544	281.500	297.137	220.623	331.420	88.436	85.977	132.530	193.001	118.612	121.047	119.232	184.264	137.519	121.309	197.346	88.507	39.743
29.000	330.799	334.499	277.012	227.116	300.289	298.068	300.289	235.950	281.572	297.257	221.244	331.300	88.865	85.714	131.909	192.309	118.779	121.023	119.423	183.667	137.305	121.691	197.824	88.531	28.238
30.000	330.847	334.213	278.086	226.018	299.716	296.302	298.403	234.923	281.476	299.501	220.909	332.518	87.314	85.642	131.217	193.145	119.352	121.811	120.259	185.099	137.710	119.041	197.466	88.197	34.103
31.000	330.226	333.807	280.330	222.772	298.403	294.535	296.803	232.202	280.354	300.408	221.124	331.300	88.937	86.144	129.211	196.606	120.999	124.126	122.264	187.701	138.260	118.421	197.442	88.125	49.354
32.000	328.412	333.664	281.381	221.864	296.469	293.413	295.514	236.881	281.500	295.347	221.339	329.725	90.966	86.550	128.042	197.585	122.097	125.177	123.267	183.022	137.400	123.482	197.537	89.844	53.550
33.000	325.045	332.947	282.121	221.602	296.899	294.392	296.588	243.303	283.267	286.036	221.840	328.244	94.762	87.552	127.612	197.322	122.049	124.198	122.479	176.147	135.824	133.556	196.535	91.038	40.555
34.000	320.509	332.852	281.978	223.440	297.543	295.729	297.949	250.107	284.556	271.855	222.843	324.401	98.844	87.337	127.946	195.365	121.142	122.599	120.832	169.080	134.368	147.904	195.460	94.881	29.005
35.000	314.517	331.682	281.142	228.262	298.904	297.639	299.811	256.194	285.821	253.401	223.559	320.366	104.216	88.770	128.734	190.781	119.519	120.736	118.850	162.419	133.151	163.947	194.649	98.152	33.111
36.000	307.069	329.557	279.829	234.135	300.408	299.572	302.007	261.447	286.323	233.180	224.276	315.782	112.405	90.274	130.906	184.335	118.373	118.874	116.964	157.406	132.076	184.741	193.646	103.380	47.323
37.000	294.941	327.982	277.227	241.679	302.055	301.936	304.299	266.388	287.373	227.355	224.753	310.315	124.890	91.635	133.031	176.934	116.559	116.821	114.816	152.249	131.432	192.476	193.145	109.397	51.564
38.000	278.755	326.191	275.030	249.414	303.512	304.180	306.185	270.566	287.707	245.356	225.541	303.249	141.793	93.592	136.326	169.200	115.150	114.911	112.954	148.000	131.026	174.929	192.667	116.200	41.503
39.000	254.953	324.019	271.330	256.457	304.419	305.851	307.713	273.741	288.161	258.629	226.138	295.514	165.547	96.242	139.787	161.894	113.813	112.691	111.139	144.276	130.644	160.128	191.999	123.744	32.118
40.000	230.077	320.127	267.200	263.213	306.090	307.666	309.122	276.893	288.209	269.587	226.591	288.113	188.561	98.964	144.777	155.019	112.572	110.901	109.611	141.029	130.572	148.931	191.712	130.811	34.870
41.000	229.456	316.451	261.805	269.205	306.878	309.408	310.554	279.925	288.447	277.489	226.663	280.617	190.375	102.211	150.172	149.289	111.450	109.373	108.776	138.474	130.262	141.172	191.330	138.976	44.436
42.000	243.040	312.560	256.481	274.720	308.334	311.270	311.318	282.407	288.495	283.362	227.045	272.739	176.600	106.938	156.427	143.870	110.399	107.773	107.630	135.920	130.286	135.466	191.115	146.591	47.323
43.000	254.189	307.809	250.990	278.922	309.146	312.225	312.082	284.890	288.877	287.946	227.737	265.338	166.120	111.664	163.398	139.382	109.444	106.579	106.842	133.747	130.310	131.169	190.853	154.159	41.819
44.000	262.282	302.246	244.759	283.004	309.933	313.156	312.894	286.896	288.686	291.097	227.737	258.128	156.618	117.370	170.274	135.681	108.680	105.648	106.221	131.790	130.238	127.493	190.638	161.130	36.540
45.000	270.017	295.442	238.671	286.370	310.721	313.944	313.276	288.614	288.471	293.771	227.928	251.038	148.644	123.888	177.579	132.124	107.916	105.075	105.648	129.761	130.214	125.057	190.280	167.504	37.668
46.000	276.988	287.540	233.634	288.973	311.103	313.968	313.562	290.166	288.567	295.920	227.928	244.377	142.032	131.981	183.858	129.307	107.224	104.622	105.290	128.137	130.166	122.957	189.850	174.404	42.089
47.000	283.410	277.943	229.790	291.766	311.987	314.446	314.111	291.837	288.782	297.424	228.597	238.122	136.493	141.220	189.349	127.182	106.890	104.311	104.861	126.705	130.357	121.476	189.874	180.635	43.939
48.000	287.707	269.205	229.074	293.174	312.440	314.780	314.422	293.700	288.567	298.999	228.573	232.631	131.670	150.602	191.593	125.248	106.508	104.288	104.741	125.320	130.214	119.829	189.635	186.006	41.097
49.000	291.527	259.704	231.581	295.084	312.727	315.138	314.780	294.726	288.376	300.074	228.668	227.594	127.851	160.271	188.871	123.362	106.126	103.929	104.479	124.031	130.286	118.659	189.301	191.163	39.157
50.000	294.654	249.104	235.783	297.233	313.156	314.947	314.756	295.777	288.567	301.387	229.002	223.249	125.272	169.725	183.738	121.500	105.648	103.810	104.407	122.837	130.214	117.275	189.301	196.153	39.924
51.000	296.588	237.621	240.796	298.379	313.013	315.353	315.019	296.731	288.734	302.509	229.002	218.761	122.551	181.136	178.749	120.068	105.529	103.810	104.240	121.882	130.238	116.296	189.420	200.283	40.646
52.000	298.808	226.090	245.499	299.644	313.514	315.472	315.210	297.400	288.256	303.106	228.835	218.379	120.832	192.739	173.735	118.803	105.266	103.786	104.383	121.214	130.238	115.651	189.205	201.262	40.420
53.000	300.217	224.872	249.677	300.981	313.610	315.162	314.875	298.426	288.495	303.774	228.812	220.695	119.447	195.484	169.009	117.991	105.028	103.667	104.049	120.569	130.310	115.055	189.134	199.041	39.924
54.000	301.124	235.615	253.282	301.435	313.896	315.472	315.329	298.761	288.400	304.466	229.217	222.533	118.277	183.810	165.189	116.988	104.837	103.524	103.906	119.996	130.286	114.458	189.110	196.893	40.916
55.000	301.936	246.096	256.982	302.198	314.040	315.353	315.138	299.023	288.734	304.753	228.883	224.705	117.609	173.067	161.918	116.487	104.789	103.500	104.025	119.734	130.190	114.052	189.062	194.816	41.413
56.000	303.106	255.072	260.014	303.153	314.350	315.687	315.210	299.238	288.519	305.159	229.408	226.926	116.296	164.210	158.958	115.795	104.598	103.548	103.882	119.447	130.357	113.479	188.823	192.906	40.285
57.000	303.631	262.569	262.401	303.082	314.159	315.663	315.496	299.787	288.662	305.660	229.122	228.859	115.604	157.334	156.427	115.484	104.789	103.452	103.762	119.185	130.334	113.216	188.919	190.781	39.292
58.000	304.443	269.014	265.123	303.846	314.326	315.639	315.329	299.668	288.614	305.827	229.480	230.721	114.864	150.984	154.279	115.174	104.479	103.428	103.762	119.065	130.381	112.930	188.847	189.014	39.247
59.000	304.634	273.503	266.723	304.013	314.302	315.591	315.329	299.787	288.519	306.233	229.695	232.178	114.458	146.042	151.963	114.744	104.479	103.428	103.810	118.874	130.548	112.619	188.704	187.033	41.999
60.000	306.233	277.561	268.895	304.180	314.302	315.544	315.997	300.312	288.758	306.639	229.265	234.637	113.741	141.578	149.934	114.314	104.407	103.333	103.643	118.683	130.310	112.261	188.680	184.717	42.676
61.000	305.612	280.951	270.709	304.610	314.541	315.544	315.568	300.002	288.352	306.543	229.838	236.188	113.312	138.307	148.382	113.909	104.359	103.428	103.810	118.564	130.334	111.903	188.585	183.118	40.194
62.000	306.448	283.888	272.715	304.777	314.159	315.568	315.472	300.384	288.471	307.522	229.790	237.692	112.954	135.920	147.045	113.861	104.264	103.357	103.619	118.492	130.572	111.808	188.513	181.638	38.931
63.000	306.711	286.347	273.694	305.278	314.493	315.806	315.591	300.527	288.734	307.594	229.384	239.602	112.476	133.246	145.278	113.598	104.216	103.452	103.810	118.421	130.429	111.450	188.585	179.632	38.886
64.000	306.830	288.376	274.959	305.469	314.493	315.544	315.496	300.408	288.591	307.642	229.719	241.082	112.405	131.121	143.822	113.383	104.311	103.428	103.691	118.254	130.381	111.354	188.394	178.295	42.541
65.000	307.331	289.832	275.938	305.326	314.469	315.520	315.472	300.599	288.543	307.546	229.719	242.252	111.951	129.832	142.819	113.169	104.311	103.452	103.643	118.254	130.477	111.163	188.489	177.245	43.894
66.000	307.761	290.763	277.131	305.660	314.708	315.448	315.496	300.456	288.614	307.928	229.695	243.159	111.760	128.519	141.793	113.145	104.240	103.357	103.548	117.991	130.525	111.044	188.298	176.099	40.826
67.000	307.904	292.219	278.301	305.970	314.565	315.186	315.544	300.647	288.471	308.024	229.766	244.043	111.426	127.564	141.053	112.906	104.192	103.357	103.667	118.039	130.381	110.877	188.346	175.144	38.254
68.000	308.429	293.485	279.113	306.257	314.851	315.615	315.639	300.814	288.447	307.833	229.838	245.165	111.187	126.323	140.026	112.643	104.144	103.404	103.619	118.015	130.501	110.686	188.274	174.070	38.525
69.000	308.453	294.201	279.375	305.994	314.541	315.496	315.806	300.862	288.662	308.143	229.719	246.502	111.068	125.248	139.310	112.667	104.192	103.309	103.548	117.943	130.453	110.590	188.394	173.043	42.405
70.000	308.811	295.180	280.545	306.209	314.756	315.806	315.878	300.694	288.376	308.262	230.029	246.979	110.733	124.628	138.618	112.452	104.049	103.333	103.739	117.967	130.548	110.471	188.298	172.255	43.849
71.000	308.764	295.729	281.333	306.305	314.851	315.568	315.663	300.766	288.567	308.429	230.077	247.815	110.757	123.912	137.854	112.357	104.120	103.380	103.667	117.800	130.477	110.375	188.274	171.515	41.142
72.000	309.122	296.278	281.691	306.448	314.995	315.830	315.544	301.076	288.758	308.931	229.886	248.865	110.471	123.339	137.400	112.333	104.216	103.380	103.452	117.848	130.429	110.328	188.322	170.656	37.848
73.000	309.122	296.875	282.503	306.257	314.756	315.663	315.591	301.053	288.567	308.907	230.005	249.510	110.160	122.718	136.923	112.357	104.025	103.285	103.428	117.728	130.429	110.184	188.203	169.749	38.209
74.000	309.002	297.543	282.837	306.711	315.019	315.711	315.591	300.838	288.662	308.740	230.005	250.489	110.351	122.360	136.421	112.214	104.073	103.261	103.571	117.824	130.525	110.065	188.179	168.889	42.405
75.000	309.623	297.806	283.410	306.639	314.804	315.806	315.663	300.838	288.352	309.002	230.005	251.253	110.304	121.763	135.968	111.975	104.097	103.428	103.619	117.704	130.453	109.826	188.274	167.982	44.255
76.000	309.265	298.235	283.601	306.687	315.042	315.591	315.520	300.933	288.137	309.050	229.814	252.231	109.850	121.047	135.419	111.999	104.073	103.357	103.643	117.657	130.405	109.778	188.131	167.027	41.458
77.000	309.814	298.928	284.031	306.925	314.851	315.448	315.854	301.172	288.567	309.002	229.814	253.091	109.635	120.689	135.037	112.046	104.073	103.404	103.548	117.752	130.525	109.683	188.131	166.239	37.397
78.000	309.408	299.477	285.081	306.830	314.684	315.615	315.544	300.981	288.495	309.146	230.053	254.284	109.540	120.163	134.416	111.927	103.882	103.309	103.476	117.728	130.596	109.588	188.083	165.308	37.758
79.000	310.029	299.429	285.057	306.520	314.875	315.735	315.782	301.291	288.758	309.504	229.886	254.881	109.659	119.805	134.010	111.832	103.953	103.261	103.595	117.704	130.429	109.588	188.203	164.449	42.405
80.000	310.124	300.145	285.272	307.140	314.875	315.759	315.711	301.244	288.471	309.456	229.934	255.550	109.301	119.710	133.819	111.784	104.001	103.380	103.667	117.657	130.572	109.444	188.036	163.613	44.751
81.000	310.697	300.312	286.227	307.236	314.851	315.663	315.782	301.100	288.471	309.647	229.934	256.170	109.325	119.352	133.174	111.808	103.929	103.213	103.548	117.537	130.477	109.349	188.036	163.040	41.593
82.000	310.554	300.790	286.251	307.331	314.828	315.663	315.926	301.244	288.447	309.528	230.053	256.648	109.110	119.089	132.864	111.593	104.097	103.428	103.643	117.633	130.477	109.325	187.940	162.491	36.856
83.000	309.981	300.718	286.466	306.639	314.780	315.950	315.687	301.100	288.591	309.647	230.101	257.340	109.206	118.779	132.697	111.617	103.977	103.261	103.619	117.585	130.429	109.277	188.036	162.061	37.532
84.000	310.244	300.885	286.442	307.116	314.637	315.615	315.639	301.482	288.782	309.790	229.790	257.961	109.134	118.731	132.243	111.545	103.953	103.380	103.595	117.657	130.405	109.062	188.012	161.536	42.541
85.000	310.459	300.862	287.063	306.878	315.019	315.830	315.854	301.530	288.447	309.838	230.292	258.343	108.800	118.659	132.076	111.569	103.977	103.309	103.428	117.537	130.477	109.134	188.060	161.154	45.067
86.000	310.626	301.267	287.230	306.973	314.541	315.663	315.711	301.482	288.591	309.671	230.220	259.226	108.895	118.230	131.909	111.688	104.049	103.380	103.476	117.370	130.453	109.206	187.940	160.533	41.819
87.000	310.817	301.387	287.182	307.403	314.947	315.830	315.973	301.363	288.400	309.981	229.981	259.465	108.800	118.039	131.694	111.545	104.264	103.452	103.595	117.466	130.381	108.943	187.964	159.650	37.036
88.000	310.363	302.031	288.161	307.164	314.613	315.305	315.496	301.244	288.829	309.910	229.814	260.874	108.776	117.609	131.241	111.474	103.953	103.309	103.595	117.466	130.357	108.991	187.892	158.838	36.765
89.000	311.485	302.079	288.424	307.331	315.019	315.950	315.950	301.602	288.495	309.814	230.148	261.256	108.537	117.537	131.097	111.474	103.953	103.309	103.500	117.299	130.381	108.871	188.036	158.146	42.270
