-----------------------------------------------------
BloodHound 307 VOC Analyser V2017.1
RoboScientific Ltd 
Espace North
Wisbech Road
Littleport
Cambridgeshire, UK
CB6 1RA 
-----------------------------------------------------
Date = 08/04/2022
Time = 11:47:06
Data is protected by RoboScientific Limited
-----------------------------------------------------
Name of the experiment = "47b_Day 31"
-----------------------------------------------------
Repeat No. = 2/4
-----------------------------------------------------
Experimental Time (in sec) and Flow Profile :
-----------------------------------------------------
Baseline = 2.00
Absorb = 4.00
Pause = 1.00
Desorb = 5.00
Flush = 20.00
Wait = 5.00
Higher Flow (V) = 4.00
Medium Flow (V) = 3.00
Low Flow (V) = 1.00
-----------------------------------------------------
Total Profile Time = 37 in sec
-----------------------------------------------------
Acquired data point per second = 4
--------------------------------------------------
Total data point stored  = 128
-----------------------------------------------------
Acquired sensor responses from 24 sensors
-----------------------------------------------------

Data Points	 Sen-1	 Sen-2	 Sen-3	 Sen-4	 Sen-5	 Sen-6	 Sen-7	 Sen-8	 Sen-9	 Sen-10	 Sen-11	 Sen-12	 Sen-13	 Sen-14	 Sen-15	 Sen-16	 Sen-17	 Sen-18	 Sen-19	 Sen-20	 Sen-21	 Sen-22	 Sen-23	 Sen-24	Humidity (%r.h.)
0.000	313.156	306.806	298.976	308.429	314.875	315.782	315.854	301.530	288.758	311.772	229.886	280.760	106.388	112.715	120.235	110.160	103.643	103.213	103.452	117.633	130.525	107.272	188.107	138.570	45.609
1.000	313.109	306.520	299.525	308.740	315.090	315.568	315.520	301.076	288.447	311.772	229.838	281.023	106.388	112.739	120.092	109.969	103.667	103.309	103.428	117.609	130.286	107.009	188.083	138.427	38.344
2.000	313.085	306.639	299.262	308.955	315.377	315.973	315.735	301.076	288.400	311.509	230.077	280.712	106.388	112.882	120.187	110.041	103.571	103.285	103.452	117.609	130.501	107.296	188.179	138.427	33.291
3.000	313.133	306.878	299.190	308.764	315.019	315.615	315.854	301.387	288.829	311.819	230.292	280.832	106.245	112.763	120.116	109.969	103.691	103.357	103.500	117.633	130.525	107.200	188.107	138.116	37.713
4.000	313.061	306.973	299.095	308.477	314.947	315.639	315.878	301.124	288.519	311.748	230.029	281.070	106.221	112.548	119.781	110.017	103.595	103.500	103.619	117.585	130.501	107.224	187.916	137.878	45.744
5.000	313.324	306.878	299.238	309.002	315.663	315.830	315.806	301.124	288.424	311.461	230.029	281.094	106.365	112.763	119.853	110.065	103.571	103.285	103.404	117.585	130.453	107.320	188.107	138.092	47.233
6.000	313.085	306.639	299.238	308.597	315.305	315.878	315.782	301.124	288.376	311.772	229.862	281.214	106.197	112.834	119.949	110.089	103.643	103.213	103.357	117.681	130.596	107.009	188.083	138.283	40.510
7.000	312.989	307.021	299.167	308.883	315.448	315.663	315.735	301.053	288.495	311.796	230.029	281.190	106.317	112.667	119.853	110.160	103.834	103.428	103.524	117.609	130.334	107.105	188.203	138.164	33.652
8.000	313.467	306.806	299.167	309.002	315.257	315.854	315.806	301.220	288.734	311.796	230.244	281.214	106.197	112.715	119.996	109.946	103.619	103.404	103.524	117.585	130.501	107.033	188.227	137.901	35.637
9.000	312.870	306.663	299.310	308.644	315.042	315.687	315.806	301.172	288.328	311.724	230.363	281.500	106.030	112.596	119.972	109.969	103.643	103.357	103.452	117.633	130.453	106.961	188.012	137.639	43.804
10.000	311.628	305.421	299.310	308.597	315.138	315.329	315.424	300.981	288.495	311.461	229.623	279.948	106.770	113.455	120.020	110.113	103.762	103.452	103.548	117.561	130.190	107.248	188.298	139.023	48.000
11.000	299.907	275.603	297.472	308.024	315.281	315.759	315.902	300.480	289.235	308.358	227.857	258.868	120.402	146.544	121.166	110.686	103.858	103.357	103.428	118.230	129.450	110.614	189.993	162.443	40.555
12.000	271.426	255.526	294.201	306.902	315.233	315.520	315.496	297.854	289.880	295.156	226.329	285.965	148.453	162.133	124.628	111.927	103.810	103.333	103.571	120.904	129.044	124.198	191.712	132.530	45.067
13.000	244.019	285.033	288.519	304.729	314.684	315.138	315.496	294.129	290.166	281.405	225.111	302.007	173.353	132.745	130.023	113.574	104.025	103.428	103.571	124.246	128.686	136.732	193.216	117.036	47.639
14.000	232.894	302.485	282.312	301.888	314.087	315.353	315.377	290.262	290.023	269.420	224.228	311.270	184.479	116.153	136.612	116.559	104.288	103.691	103.810	127.994	128.543	148.716	194.004	107.821	39.112
15.000	259.035	312.464	274.863	297.830	313.729	314.422	315.114	286.800	290.333	256.290	223.774	316.594	159.841	106.699	143.989	120.235	104.502	103.834	104.001	131.766	128.806	162.205	194.959	102.569	29.772
16.000	280.402	318.838	267.606	293.604	313.873	314.804	314.804	282.789	289.856	241.464	222.557	320.939	140.074	99.823	151.676	125.153	104.884	104.001	104.001	135.777	129.235	178.295	195.747	98.248	35.006
17.000	294.416	322.992	259.202	288.018	313.156	313.896	314.374	277.800	289.235	224.013	221.721	324.234	124.150	96.194	160.390	130.501	105.505	104.550	104.383	140.337	129.856	195.747	196.176	95.836	48.541
18.000	305.374	325.666	250.489	281.739	312.727	313.514	313.992	272.834	288.471	231.843	221.673	325.618	113.383	93.019	168.674	136.421	105.959	105.362	104.932	145.326	130.381	185.529	196.654	93.974	52.963
19.000	313.156	327.242	243.541	275.150	311.939	312.273	313.252	267.367	287.540	248.531	221.530	327.719	106.436	91.563	177.102	142.939	106.603	106.197	105.410	150.483	131.074	168.889	196.988	92.136	42.180
20.000	318.050	329.295	239.626	268.704	311.461	311.056	312.607	262.234	286.657	262.592	221.053	327.552	101.089	89.844	183.404	149.910	107.367	107.558	106.388	156.141	131.957	155.830	197.227	91.396	29.321
21.000	321.417	330.512	240.032	261.590	310.339	309.193	311.438	257.078	286.179	274.076	220.790	328.674	96.767	88.698	180.611	157.215	108.274	109.229	107.272	162.181	132.888	145.231	197.537	90.441	30.990
22.000	324.329	331.802	244.640	254.356	309.528	306.830	309.933	251.205	284.795	281.643	220.336	330.369	94.380	87.815	172.160	164.377	109.182	111.402	108.919	167.982	133.962	136.899	197.561	89.701	44.526
23.000	326.024	331.539	250.512	246.931	308.119	304.490	308.620	245.451	284.126	288.567	220.527	329.868	92.184	87.576	163.112	171.754	110.137	114.314	110.686	173.640	134.941	130.357	197.919	89.653	54.181
24.000	328.268	332.160	256.170	239.650	307.236	301.387	306.687	240.008	282.598	293.509	220.408	331.539	90.536	86.072	155.234	178.462	111.330	116.773	112.524	178.606	136.135	124.795	198.039	88.985	46.421
25.000	329.438	332.351	260.420	233.538	306.066	298.952	304.204	235.353	281.309	296.660	220.480	331.443	90.107	86.645	149.265	185.457	112.619	119.781	114.696	184.264	137.137	122.121	198.110	88.364	32.208
26.000	329.462	332.327	263.547	231.247	305.302	297.854	302.652	234.637	281.381	296.708	220.480	331.348	89.725	86.239	146.042	187.678	113.240	120.593	116.177	185.171	137.663	122.121	198.397	89.343	28.283
27.000	329.772	332.995	264.741	232.034	304.610	297.663	302.007	235.592	281.643	296.397	220.217	331.109	89.271	86.932	144.586	187.272	113.646	120.593	116.750	184.335	137.543	122.885	198.158	88.961	39.833
28.000	329.939	333.138	265.672	232.655	304.801	297.830	301.817	236.284	281.834	295.371	220.456	331.372	89.367	87.218	143.368	186.603	113.598	120.307	116.988	183.810	137.305	123.148	198.301	88.531	53.234
29.000	330.107	333.759	265.744	233.849	304.872	298.832	301.960	236.809	281.667	294.774	220.098	330.894	89.725	86.669	142.795	185.457	113.861	120.092	117.036	183.070	137.161	123.673	198.277	88.101	50.256
30.000	330.966	333.616	267.224	232.655	304.466	297.495	301.053	235.854	281.261	297.400	220.599	331.014	88.125	86.454	141.650	186.365	114.267	120.975	117.609	183.858	137.328	120.713	198.015	88.340	36.179
31.000	330.990	333.497	269.014	228.501	303.225	295.633	299.811	233.037	280.856	298.498	220.527	331.133	89.486	86.215	139.095	190.328	115.007	122.933	119.232	187.439	138.092	119.949	198.540	89.462	27.516
32.000	327.528	333.162	270.972	225.302	302.891	294.750	298.450	235.544	281.166	295.514	220.336	330.465	91.444	86.168	137.328	194.052	115.914	124.198	120.569	184.192	137.615	123.171	198.086	89.319	35.863
33.000	324.926	331.873	272.667	225.660	302.079	294.654	298.498	241.751	282.598	285.988	220.718	328.603	94.547	86.764	136.779	194.267	116.033	123.721	120.450	178.128	136.421	132.482	197.537	91.850	50.166
34.000	320.653	332.566	271.855	228.406	302.700	296.087	299.740	248.054	284.270	273.144	221.458	325.117	99.035	87.815	136.469	190.948	115.842	122.336	119.089	171.276	134.798	145.827	196.558	95.240	52.738
35.000	315.377	331.061	271.449	232.822	303.321	297.806	301.339	254.237	285.392	256.600	222.748	321.846	104.335	89.510	136.970	186.078	115.102	120.641	117.537	164.759	133.461	163.351	195.580	98.439	40.285
36.000	308.859	328.817	270.304	238.719	304.419	299.549	303.106	259.632	286.227	235.997	223.774	316.403	111.306	90.393	138.809	179.823	113.932	118.779	115.699	159.006	132.506	183.834	194.649	102.545	29.682
37.000	298.283	327.695	268.131	245.642	305.398	301.649	305.159	264.598	287.015	224.252	224.276	311.103	120.593	91.491	141.435	172.828	112.930	116.726	113.980	153.634	131.623	193.956	194.123	107.797	33.652
38.000	283.386	326.191	265.433	252.184	306.806	303.893	306.925	269.086	287.612	242.300	225.111	303.822	134.440	93.568	144.610	165.881	111.975	115.007	112.214	149.599	131.145	176.242	193.479	114.792	45.744
39.000	264.287	322.992	261.303	259.728	307.856	305.899	308.382	272.739	287.874	257.197	225.398	297.185	155.066	95.717	148.501	159.173	111.211	113.121	110.924	145.732	130.787	161.846	193.049	121.835	50.211
40.000	240.939	320.127	257.913	265.600	308.358	307.618	309.528	276.057	288.137	269.372	225.994	289.904	180.038	99.059	153.491	152.775	110.256	111.092	109.468	142.509	130.501	150.268	192.452	130.023	42.766
41.000	224.825	316.379	252.876	271.378	309.122	309.050	310.554	278.993	288.209	277.155	226.209	281.572	194.028	103.094	159.388	146.997	109.516	109.373	108.394	139.334	130.405	141.530	191.975	138.498	34.915
42.000	239.937	312.464	247.552	276.535	309.814	310.602	311.748	281.930	288.662	283.267	226.257	273.025	179.704	106.938	166.024	141.841	108.585	107.940	107.296	136.660	130.357	135.466	191.712	145.780	34.870
43.000	250.894	307.331	242.109	280.521	310.793	311.987	312.703	284.270	288.471	287.994	226.758	265.314	168.579	111.617	172.494	137.663	107.916	106.699	106.579	134.106	130.262	130.930	191.521	153.419	41.458
44.000	260.062	302.055	236.976	284.532	311.008	312.512	312.798	286.323	288.829	291.408	227.045	258.009	159.101	117.490	179.155	134.058	107.248	105.696	106.078	132.100	130.286	127.803	191.259	160.820	45.157
45.000	267.486	295.132	233.729	287.397	311.891	313.562	313.300	288.424	288.734	294.010	227.307	251.467	151.891	124.365	185.266	131.097	106.985	105.219	105.553	130.143	130.166	125.201	190.996	167.815	42.811
46.000	274.744	287.683	232.154	290.119	312.512	314.231	314.111	290.524	288.591	295.586	227.307	245.045	144.658	131.957	189.205	128.376	106.508	104.741	105.195	128.185	130.238	122.981	190.948	173.903	39.247
47.000	281.285	278.182	233.180	292.530	312.583	314.589	314.231	292.124	288.805	297.400	228.095	238.265	137.663	141.506	187.916	126.084	106.054	104.479	104.765	126.275	130.238	121.166	190.590	180.396	38.209
48.000	286.394	267.940	236.570	294.201	313.085	314.613	314.660	293.747	288.591	299.190	227.713	232.034	133.533	150.960	184.097	124.103	105.744	104.264	104.741	124.986	130.166	119.614	190.614	186.293	39.698
49.000	289.617	258.128	240.700	296.254	312.989	314.828	314.756	295.013	288.686	300.456	227.857	227.140	129.832	160.844	179.584	122.551	105.577	104.049	104.502	123.744	130.262	118.540	189.898	191.235	41.999
50.000	292.601	248.531	245.762	297.877	313.180	314.589	314.589	295.753	288.638	301.363	228.167	222.724	126.896	171.253	173.831	120.593	105.290	103.929	104.288	122.981	130.214	117.346	190.017	195.938	40.646
51.000	295.800	237.549	250.178	298.880	313.849	315.233	315.400	296.803	289.092	302.294	228.191	219.334	124.150	181.972	168.603	119.209	105.004	103.715	104.049	122.193	130.262	116.606	189.850	199.901	39.924
52.000	297.448	226.257	254.953	300.241	313.968	315.377	314.875	297.281	288.805	303.106	228.525	218.880	122.097	193.168	163.637	118.182	104.956	103.595	104.097	121.500	130.310	115.842	189.802	200.880	40.014
53.000	298.952	222.318	259.083	301.435	314.087	315.544	315.305	297.615	288.519	303.535	228.525	220.838	120.545	197.442	159.602	116.988	104.789	103.691	104.073	121.047	130.238	115.126	189.683	199.065	40.555
54.000	300.002	232.130	262.545	302.031	314.064	315.759	315.305	298.307	288.662	304.323	228.477	222.867	119.399	188.370	156.212	116.463	104.622	103.619	103.953	120.736	130.286	114.577	189.635	197.179	39.743
55.000	301.578	241.488	265.863	302.962	314.278	315.329	315.377	298.235	288.949	304.466	228.477	224.586	118.134	178.439	153.013	115.842	104.479	103.452	103.786	120.283	130.334	114.314	189.611	195.126	39.202
56.000	302.151	249.510	268.632	303.583	314.469	315.591	315.400	298.474	288.543	304.896	228.597	226.687	117.609	170.345	150.721	115.269	104.502	103.500	103.929	120.068	130.238	113.909	189.373	193.216	39.833
57.000	303.130	256.266	270.471	303.679	314.350	315.854	315.615	298.689	288.662	305.398	228.549	228.740	116.487	162.849	148.262	114.983	104.311	103.476	103.858	119.781	130.310	113.455	189.564	190.924	41.728
58.000	303.822	262.545	272.619	304.132	314.517	315.759	315.663	299.405	288.805	305.636	228.955	230.507	115.651	156.570	146.018	114.482	104.264	103.476	103.762	119.734	130.262	113.025	189.420	189.110	41.774
59.000	304.419	267.797	274.840	305.159	314.660	315.448	315.400	299.095	288.782	306.281	228.621	231.987	115.031	151.438	144.252	114.076	104.192	103.428	103.810	119.662	130.405	112.882	189.396	187.463	40.014
60.000	304.801	272.309	276.391	305.159	314.613	315.639	315.639	299.429	288.519	306.305	228.883	233.682	114.553	147.499	142.963	113.837	104.359	103.452	103.762	119.495	130.238	112.524	189.349	186.006	39.112
61.000	305.589	275.962	277.298	305.278	314.851	315.759	315.591	299.358	288.495	306.400	228.955	235.639	114.123	143.416	141.482	113.550	104.073	103.476	103.762	119.447	130.429	112.261	189.373	183.977	39.066
62.000	305.923	279.566	279.065	305.350	314.589	315.233	315.568	299.429	288.614	306.854	229.050	236.905	113.431	140.074	140.026	113.312	104.144	103.452	103.786	119.423	130.429	111.927	189.349	182.402	42.135
63.000	306.567	282.264	280.116	305.350	314.875	315.615	315.687	299.763	288.567	306.997	229.217	238.528	113.216	137.328	138.928	113.097	104.025	103.333	103.500	119.113	130.334	111.999	189.229	180.587	43.262
64.000	306.472	284.819	281.261	305.493	314.565	315.663	315.568	300.098	288.782	307.785	229.265	240.557	112.619	134.488	137.591	112.810	104.073	103.333	103.762	119.113	130.429	111.474	189.253	178.868	40.871
65.000	307.284	286.872	282.240	305.923	314.732	315.472	315.257	299.978	288.734	307.498	229.050	241.966	112.381	132.411	136.636	112.810	104.073	103.428	103.691	119.041	130.405	111.283	189.277	177.388	38.525
66.000	307.904	289.164	283.482	305.970	314.947	316.117	315.591	299.978	288.614	307.475	229.217	243.923	111.855	130.405	135.848	112.619	104.025	103.380	103.691	119.041	130.525	111.259	189.062	175.621	38.390
67.000	308.191	290.620	284.317	306.281	315.066	315.806	315.854	300.145	288.519	308.047	229.193	245.809	111.736	128.543	134.750	112.524	104.049	103.333	103.571	118.850	130.357	111.115	189.110	173.926	41.728
68.000	308.000	291.933	284.866	306.209	314.875	315.735	315.591	299.883	288.567	308.143	228.955	246.597	111.545	127.325	133.986	112.214	104.025	103.285	103.667	118.755	130.334	110.686	189.062	172.733	43.849
69.000	308.095	292.983	285.702	306.711	314.995	315.520	315.663	300.169	288.710	308.143	229.170	247.839	111.450	126.394	133.174	112.190	103.929	103.309	103.500	118.779	130.548	110.733	189.062	171.730	42.135
70.000	308.501	294.177	286.585	306.639	314.804	315.687	315.735	300.145	288.519	308.644	229.122	248.459	111.020	125.487	132.482	111.903	103.906	103.476	103.691	118.850	130.477	110.519	188.943	170.632	38.751
71.000	308.597	295.204	287.301	306.973	315.090	315.400	315.568	300.121	288.805	308.238	228.907	250.202	110.614	124.294	131.885	111.855	103.882	103.380	103.643	118.731	130.548	110.375	188.967	169.056	37.352
72.000	309.170	296.135	288.304	306.973	314.851	315.711	315.663	300.265	288.567	308.644	229.528	251.635	110.542	123.386	131.288	111.879	104.001	103.404	103.595	118.468	130.501	110.256	188.823	167.552	40.239
73.000	309.170	297.018	288.614	306.758	314.446	315.496	315.759	300.503	288.638	308.955	229.265	253.019	110.375	122.575	130.596	111.784	103.834	103.309	103.691	118.588	130.525	110.089	188.943	166.478	44.120
74.000	309.361	297.734	288.710	307.021	314.971	315.735	316.021	300.360	288.638	308.955	229.217	253.306	110.375	122.073	130.166	111.736	103.810	103.380	103.548	118.564	130.501	109.946	188.847	165.953	43.669
75.000	309.122	297.997	289.617	307.331	315.066	315.687	315.615	300.289	288.304	308.979	229.480	254.046	110.137	121.548	129.570	111.569	103.834	103.285	103.452	118.445	130.501	109.874	188.800	165.117	39.247
76.000	309.432	298.450	289.928	307.021	314.828	315.735	315.950	300.336	288.543	309.002	229.241	254.523	109.874	121.309	129.188	111.641	103.906	103.428	103.619	118.612	130.477	109.778	188.967	164.831	36.404
77.000	309.981	298.808	290.166	307.212	314.899	315.854	315.973	300.384	288.447	309.026	229.504	255.216	109.778	120.760	128.901	111.593	103.882	103.261	103.524	118.468	130.596	109.731	188.752	163.995	38.976
78.000	309.814	299.572	290.524	307.140	314.923	315.615	315.759	300.241	288.662	309.146	229.552	256.600	109.683	120.187	128.471	111.593	104.001	103.404	103.524	118.492	130.429	109.540	188.919	162.539	43.759
79.000	309.838	299.883	291.241	307.331	315.090	315.568	315.520	300.575	288.591	309.384	229.384	257.698	109.540	119.519	128.042	111.259	103.929	103.333	103.571	118.445	130.501	109.468	188.847	161.512	44.481
80.000	310.387	300.169	291.527	307.475	315.138	315.687	315.806	300.360	288.424	309.313	229.337	258.033	109.301	119.352	127.875	111.259	103.810	103.261	103.595	118.397	130.477	109.516	188.704	161.035	40.420
81.000	310.315	300.289	291.479	307.379	314.851	315.782	315.806	300.503	288.782	309.432	229.217	258.438	109.373	119.209	127.516	111.402	103.786	103.285	103.428	118.254	130.620	109.468	188.847	160.868	36.359
82.000	310.387	300.312	292.124	307.284	314.995	315.830	315.687	300.408	288.614	309.408	229.265	258.606	109.444	119.089	127.158	111.235	103.953	103.380	103.595	118.182	130.501	109.373	188.728	160.724	37.713
83.000	310.626	300.456	292.386	307.761	315.186	315.711	315.926	300.742	288.519	309.599	229.361	259.011	109.158	118.898	126.991	111.187	103.834	103.333	103.548	118.397	130.334	109.325	188.919	160.366	42.766
84.000	310.363	300.742	292.028	307.355	315.090	315.687	316.021	300.718	288.376	309.504	229.719	259.632	108.967	118.803	126.824	111.235	103.858	103.476	103.476	118.325	130.548	109.253	188.704	159.650	45.248
85.000	310.292	300.790	292.864	307.737	315.233	315.711	315.639	300.503	288.447	309.647	229.480	260.229	108.967	118.588	126.514	111.044	103.762	103.524	103.500	118.325	130.357	109.110	188.752	159.411	42.044
86.000	310.554	301.244	292.697	307.594	315.019	315.854	315.711	300.551	288.877	309.671	229.671	260.372	109.015	118.325	126.562	111.259	103.858	103.333	103.619	118.230	130.477	109.158	188.585	158.958	36.991
87.000	310.697	301.387	293.413	307.475	314.923	315.639	315.806	300.718	288.638	309.719	229.552	260.826	108.943	118.015	126.060	111.020	103.858	103.524	103.571	118.230	130.477	109.110	188.680	158.433	36.404
88.000	310.411	301.626	293.509	307.498	314.828	315.639	315.591	300.718	288.471	309.742	229.886	261.805	108.633	117.776	125.869	111.092	103.834	103.404	103.500	118.134	130.477	109.134	188.704	157.621	41.322
89.000	310.530	301.864	293.580	307.809	314.923	315.735	315.568	300.503	288.447	309.886	229.838	262.521	108.680	117.657	125.678	111.020	103.786	103.189	103.333	118.182	130.405	109.062	188.656	156.809	45.338
