-----------------------------------------------------
BloodHound 307 VOC Analyser V2017.1
RoboScientific Ltd 
Espace North
Wisbech Road
Littleport
Cambridgeshire, UK
CB6 1RA 
-----------------------------------------------------
Date = 08/04/2022
Time = 11:35:13
Data is protected by RoboScientific Limited
-----------------------------------------------------
Name of the experiment = "47b_Day 27"
-----------------------------------------------------
Repeat No. = 3/4
-----------------------------------------------------
Experimental Time (in sec) and Flow Profile :
-----------------------------------------------------
Baseline = 2.00
Absorb = 4.00
Pause = 1.00
Desorb = 5.00
Flush = 20.00
Wait = 5.00
Higher Flow (V) = 4.00
Medium Flow (V) = 3.00
Low Flow (V) = 1.00
-----------------------------------------------------
Total Profile Time = 37 in sec
-----------------------------------------------------
Acquired data point per second = 4
--------------------------------------------------
Total data point stored  = 128
-----------------------------------------------------
Acquired sensor responses from 24 sensors
-----------------------------------------------------

Data Points	 Sen-1	 Sen-2	 Sen-3	 Sen-4	 Sen-5	 Sen-6	 Sen-7	 Sen-8	 Sen-9	 Sen-10	 Sen-11	 Sen-12	 Sen-13	 Sen-14	 Sen-15	 Sen-16	 Sen-17	 Sen-18	 Sen-19	 Sen-20	 Sen-21	 Sen-22	 Sen-23	 Sen-24	Humidity (%r.h.)
0.000	312.989	306.997	299.883	308.883	315.210	315.711	315.830	300.862	288.328	311.628	229.766	281.261	106.388	112.381	119.232	109.922	103.524	103.357	103.404	118.086	130.739	107.272	188.370	137.806	42.135
1.000	313.300	307.284	299.883	308.979	315.305	315.830	315.997	300.766	288.233	311.843	230.005	281.548	106.388	112.452	119.232	109.969	103.619	103.309	103.500	118.086	130.787	107.391	188.418	137.854	34.329
2.000	313.133	307.045	300.098	308.835	315.162	315.472	315.902	300.862	288.471	311.485	229.910	281.142	106.293	112.500	119.137	110.065	103.667	103.285	103.452	117.967	130.668	107.152	188.370	137.997	34.961
3.000	313.061	307.093	300.169	309.170	315.329	315.639	316.093	300.885	288.304	311.796	229.719	281.238	106.388	112.428	119.113	110.017	103.691	103.237	103.452	118.086	130.787	107.152	188.442	137.949	42.721
4.000	313.371	306.758	299.620	308.716	315.114	315.806	316.045	301.053	288.280	311.533	229.910	281.405	106.317	112.357	119.256	110.113	103.667	103.285	103.452	117.895	130.572	107.152	188.370	137.710	48.000
5.000	313.658	306.949	300.169	308.835	315.424	315.782	315.854	300.933	288.614	312.058	229.552	281.882	106.102	112.261	119.185	109.969	103.571	103.380	103.500	118.158	130.811	107.081	188.442	137.090	43.759
6.000	313.133	307.522	300.408	308.668	315.066	315.687	315.902	300.814	288.185	311.724	229.934	282.025	106.412	112.142	119.089	110.113	103.548	103.261	103.404	117.943	130.668	107.200	188.370	137.257	35.682
7.000	313.037	307.475	300.312	308.668	315.138	315.926	315.997	301.029	288.447	311.867	229.957	281.858	106.365	112.166	119.041	109.922	103.524	103.261	103.404	117.967	130.739	107.224	188.465	137.257	33.697
8.000	313.371	307.236	299.954	308.668	315.520	315.926	315.544	300.790	288.710	311.915	229.934	282.169	106.365	112.142	119.137	109.969	103.619	103.357	103.595	117.967	130.572	107.081	188.203	137.161	40.014
9.000	312.894	307.379	300.145	308.692	315.424	315.639	315.424	300.575	288.209	311.676	229.981	282.312	106.102	112.237	119.065	109.922	103.571	103.189	103.404	117.943	130.739	107.081	188.251	136.779	47.233
10.000	312.130	306.448	300.121	308.811	315.305	315.711	315.711	300.790	288.758	311.700	229.361	281.070	106.985	112.930	118.970	109.826	103.524	103.309	103.452	118.063	130.357	107.320	188.489	138.140	45.925
11.000	299.381	275.866	298.785	308.024	315.257	315.663	315.854	300.050	289.235	308.406	227.785	258.367	120.426	144.920	120.307	110.519	103.667	103.309	103.404	118.636	129.832	110.590	190.280	162.443	39.788
12.000	270.041	255.598	295.729	307.093	315.305	315.520	315.568	297.519	289.760	294.559	226.233	286.012	148.477	161.465	123.649	111.736	103.882	103.380	103.428	121.190	128.925	123.840	192.023	132.220	45.654
13.000	242.014	285.774	290.190	304.514	314.851	315.544	315.400	293.700	290.262	280.927	224.777	302.270	175.669	132.243	128.448	113.574	104.073	103.452	103.595	124.867	128.901	137.400	193.407	116.511	42.902
14.000	236.236	302.533	284.341	301.673	314.565	315.066	315.400	289.713	290.166	268.346	223.870	311.605	181.805	116.344	134.297	116.320	104.455	103.619	103.834	128.662	128.734	149.814	194.362	107.988	32.659
15.000	262.831	312.392	277.871	298.188	313.777	314.684	314.899	285.917	289.856	255.120	222.819	317.668	156.427	105.959	141.029	120.140	104.550	103.858	103.929	132.434	128.949	163.947	195.317	102.664	31.125
16.000	283.338	319.244	270.495	293.485	313.873	314.326	314.780	281.715	289.737	238.600	222.246	321.297	135.824	99.823	148.549	125.010	104.908	104.311	104.168	136.875	129.331	180.563	196.057	98.415	42.495
17.000	297.281	322.897	262.330	288.304	313.252	314.207	314.828	277.251	288.973	220.408	221.363	323.828	120.617	95.932	156.714	130.525	105.457	104.861	104.407	141.650	129.880	198.468	196.606	96.123	53.144
18.000	307.618	325.953	253.902	282.216	312.560	312.894	313.825	271.593	288.185	237.573	221.363	326.263	110.924	93.091	165.069	136.087	105.839	105.505	105.004	146.735	130.620	180.659	196.940	94.476	47.639
19.000	315.568	327.719	246.717	275.580	311.891	312.178	313.419	265.815	287.707	254.117	221.077	327.098	104.240	90.727	174.332	143.106	106.388	106.388	105.529	152.440	131.456	164.043	197.466	92.852	33.878
20.000	320.104	328.841	241.512	268.585	311.318	310.769	312.321	260.635	286.633	267.582	220.336	328.770	98.868	89.653	180.897	150.077	107.129	107.797	106.436	158.146	132.339	151.366	198.039	91.754	28.283
21.000	323.517	330.536	241.059	261.566	310.674	308.883	311.414	254.905	285.439	277.824	220.336	329.319	96.075	88.650	181.900	157.597	107.940	109.635	107.558	164.019	133.365	140.862	198.086	91.229	37.803
22.000	325.690	330.560	243.183	254.237	309.408	306.448	310.101	249.104	284.532	285.248	220.551	330.560	93.210	87.576	174.834	164.568	108.943	112.046	108.776	170.250	134.225	132.721	198.373	89.677	51.970
23.000	327.934	331.825	248.483	246.335	308.525	303.726	307.904	243.064	283.482	291.503	220.313	330.775	91.014	87.982	165.571	171.778	109.874	114.505	110.662	175.550	135.514	126.562	198.230	89.868	51.564
24.000	329.701	332.375	253.592	239.244	307.761	300.862	305.947	237.836	282.216	295.920	219.740	331.276	90.536	86.717	157.836	179.179	111.092	117.633	113.025	181.590	136.660	121.906	198.540	89.653	38.751
25.000	330.512	331.993	258.964	232.846	305.827	297.543	303.344	233.252	280.808	299.453	220.122	331.682	88.674	87.218	152.775	186.317	112.237	120.641	115.413	186.818	137.806	119.352	198.349	88.746	28.148
26.000	330.703	332.900	261.327	230.626	305.230	296.588	301.578	232.345	280.617	299.596	220.098	331.061	88.245	86.573	148.692	189.014	112.978	121.691	116.964	187.821	138.283	119.209	198.826	88.889	34.148
27.000	329.701	332.780	262.616	230.960	305.350	297.185	301.554	233.204	280.879	299.453	219.811	331.897	88.865	86.168	146.902	188.322	113.240	121.691	117.418	187.296	138.164	119.853	198.659	89.223	49.534
28.000	330.345	332.971	263.691	231.485	305.254	297.400	301.196	233.753	280.832	297.830	219.596	331.372	88.674	86.120	145.684	187.630	113.097	121.262	117.728	186.317	138.092	120.068	198.421	88.865	53.595
29.000	330.870	333.329	263.714	232.774	305.445	297.448	300.957	234.637	281.142	297.782	220.551	331.754	88.507	86.096	145.278	186.746	113.312	121.238	117.800	185.768	137.710	120.736	198.516	88.889	41.232
30.000	331.515	333.115	265.505	232.130	304.490	296.397	300.671	233.395	280.426	299.978	220.217	331.993	87.146	86.478	144.371	187.319	113.431	121.954	118.397	186.627	137.949	118.468	198.516	88.006	28.915
31.000	331.372	333.234	267.248	227.761	304.228	294.631	299.071	230.148	279.877	301.387	219.405	331.611	88.722	85.165	141.530	191.497	114.505	124.103	120.402	190.017	139.023	117.251	198.683	88.579	31.847
32.000	329.080	333.186	269.301	224.395	302.222	292.410	297.066	231.796	280.139	299.214	220.527	330.894	89.964	86.812	139.668	195.078	115.532	125.869	122.026	188.227	138.474	119.256	198.707	89.438	46.466
33.000	326.526	332.971	270.399	223.774	302.103	292.792	296.851	237.621	281.476	291.336	220.575	328.674	92.852	87.051	138.379	195.222	115.866	125.654	122.121	182.497	137.257	127.707	198.039	91.539	54.226
34.000	322.395	332.733	270.900	225.756	302.867	294.559	298.498	244.234	283.362	280.116	221.220	326.573	97.078	87.099	138.212	193.455	115.675	124.294	120.784	175.239	135.586	138.785	197.442	94.046	44.390
35.000	318.146	330.918	270.471	229.241	304.084	295.777	299.811	250.345	284.365	264.550	222.175	323.446	101.638	88.579	138.546	189.158	114.553	122.670	119.113	168.436	134.416	154.541	196.511	96.815	31.171
36.000	311.867	330.417	269.516	235.162	304.634	297.949	302.055	256.552	285.702	245.523	223.010	318.576	107.200	89.964	140.193	183.118	113.670	120.522	117.299	161.990	132.888	172.876	195.508	100.921	30.539
37.000	303.559	328.268	267.892	241.775	306.042	300.026	303.870	261.781	286.776	224.944	224.276	313.276	115.795	91.086	142.413	176.242	112.787	118.612	115.269	156.451	132.029	193.789	194.744	106.699	42.405
38.000	292.028	326.454	264.646	249.295	306.663	301.936	305.517	266.436	287.230	234.541	224.252	306.591	127.803	93.139	145.278	169.510	111.975	116.678	113.455	152.011	131.432	185.266	194.123	113.145	51.249
39.000	275.914	324.305	261.423	256.529	307.594	304.323	307.403	270.877	287.970	251.109	225.111	299.692	145.517	95.025	149.504	162.324	110.996	114.410	111.999	147.809	130.954	168.794	193.479	120.140	46.150
40.000	252.589	321.846	257.316	262.903	308.310	306.233	308.788	274.004	288.280	263.476	225.016	291.360	167.743	98.080	153.777	155.544	110.089	112.548	110.256	144.204	130.692	155.830	193.073	127.707	35.998
41.000	228.716	318.122	252.637	268.847	309.146	308.119	310.005	277.728	288.256	272.763	225.517	283.959	190.733	101.232	159.364	149.456	109.301	110.590	109.038	140.957	130.620	145.995	192.739	135.610	32.930
42.000	229.671	314.446	247.743	274.195	309.957	309.957	311.223	280.402	288.471	280.092	226.185	275.818	189.540	104.908	165.284	144.037	108.704	108.800	107.797	137.997	130.405	138.856	192.357	143.440	39.427
43.000	241.823	309.742	242.921	278.707	310.578	311.175	312.010	282.956	288.495	284.914	225.994	268.059	177.937	109.134	171.682	139.596	108.107	107.749	107.105	135.753	130.405	133.986	192.094	150.912	46.150
44.000	252.948	305.827	238.003	283.004	311.247	312.130	312.631	285.320	288.662	288.877	226.567	261.303	167.218	114.314	177.985	135.777	107.511	106.532	106.460	133.437	130.357	130.238	191.760	158.218	44.526
45.000	262.330	299.477	234.613	286.585	311.748	313.252	313.204	287.301	288.567	292.005	227.021	253.926	156.857	120.235	184.264	132.172	106.985	105.625	105.863	131.145	130.357	126.920	191.473	165.213	39.698
46.000	270.590	292.148	232.655	289.187	312.416	313.729	313.538	289.569	288.638	294.177	226.997	246.788	149.122	127.636	188.442	129.068	106.365	105.075	105.410	129.116	130.357	124.341	191.282	172.255	37.036
47.000	276.702	283.553	234.135	291.623	312.464	314.135	314.183	291.312	288.567	296.159	227.475	240.271	142.461	135.968	187.749	126.848	106.030	104.813	105.171	127.516	130.357	122.575	191.115	178.343	39.021
48.000	282.240	273.550	236.761	293.652	312.965	314.517	314.231	292.840	288.591	297.591	227.331	234.422	137.448	145.422	184.216	124.890	105.839	104.574	104.932	126.299	130.262	120.999	190.972	184.216	42.495
49.000	286.800	264.240	241.082	295.323	313.180	314.684	314.493	294.392	288.686	299.047	227.689	229.528	132.769	155.162	179.537	122.909	105.625	104.431	104.741	124.723	130.357	119.352	190.280	189.253	42.405
50.000	290.835	253.759	245.953	297.304	313.324	314.637	314.517	295.036	288.901	300.503	227.737	224.944	128.782	165.929	173.855	121.071	105.314	103.953	104.479	123.864	130.405	118.158	190.471	194.577	40.239
51.000	293.747	242.897	250.250	298.808	313.658	315.186	315.042	295.705	288.447	301.793	227.857	219.883	125.941	176.815	168.340	119.638	104.932	103.953	104.383	123.195	130.405	117.203	190.399	199.089	39.518
52.000	296.039	231.485	255.001	300.169	313.920	315.019	314.804	296.612	289.092	302.771	228.477	218.713	123.434	187.152	163.541	118.301	104.765	103.691	104.097	122.240	130.357	116.368	190.328	201.118	40.149
53.000	297.734	221.315	259.202	301.267	314.278	315.496	315.042	297.185	288.686	303.153	228.310	220.002	121.835	197.513	159.340	117.322	104.717	103.643	104.192	121.835	130.357	115.723	190.137	200.092	40.330
54.000	299.095	226.902	263.189	301.864	314.684	315.568	315.400	297.328	288.400	303.679	228.048	221.840	120.378	193.455	155.759	116.678	104.574	103.619	103.906	121.381	130.525	115.246	189.874	197.848	39.382
55.000	300.432	236.976	265.887	303.034	314.469	315.424	315.186	297.830	288.591	304.037	228.239	224.347	119.232	183.189	152.488	115.938	104.431	103.571	103.858	120.975	130.501	114.887	189.993	195.293	39.788
56.000	301.458	245.690	268.919	303.297	314.541	315.353	315.233	298.116	288.471	304.562	228.644	226.949	117.967	173.664	149.767	115.341	104.407	103.571	103.906	120.689	130.477	114.243	189.802	192.906	41.367
57.000	302.389	253.807	271.473	304.156	314.589	315.281	315.233	298.307	288.758	305.230	228.501	229.074	116.917	165.547	147.331	114.864	104.240	103.500	103.810	120.569	130.429	113.885	189.802	190.137	41.774
58.000	303.607	260.515	273.741	304.204	314.732	315.687	315.591	298.570	288.567	305.183	228.406	231.509	116.296	158.743	144.944	114.505	104.335	103.595	103.762	120.259	130.405	113.360	189.707	188.131	40.285
59.000	304.061	266.078	275.627	304.753	314.684	315.639	315.663	298.713	288.686	305.827	229.146	233.013	115.484	153.682	143.368	114.267	104.192	103.404	103.858	120.140	130.572	113.145	189.587	186.627	39.157
60.000	304.872	270.662	277.275	304.538	314.589	315.663	315.615	298.785	288.567	306.138	228.573	234.398	115.031	148.883	141.650	113.694	103.977	103.476	103.810	120.163	130.620	112.930	189.492	185.171	39.021
61.000	304.944	274.887	278.659	304.992	314.971	315.544	315.424	298.928	288.567	306.376	228.549	236.021	114.673	144.514	140.122	113.574	104.168	103.476	103.810	119.901	130.596	112.619	189.540	183.285	41.683
62.000	305.660	278.468	279.877	305.302	314.613	315.568	315.759	299.334	288.710	306.902	229.337	238.767	113.741	140.718	138.904	113.431	104.097	103.476	103.691	119.758	130.620	112.190	189.420	180.826	43.217
63.000	305.589	281.978	281.118	305.875	315.066	315.782	315.472	299.119	288.734	306.520	228.859	240.175	113.598	137.496	137.519	113.073	104.049	103.357	103.810	119.686	130.668	112.094	189.396	179.393	40.916
64.000	306.639	284.580	282.431	305.780	315.019	315.830	315.926	299.238	288.519	307.021	228.812	241.393	113.073	135.419	136.612	113.001	104.097	103.524	103.739	119.447	130.525	111.760	189.468	178.057	38.660
65.000	306.902	286.561	283.959	306.233	314.875	315.591	315.735	299.358	288.447	307.355	229.146	242.515	112.715	133.079	135.633	112.906	104.025	103.380	103.643	119.447	130.453	111.688	189.373	176.576	38.435
66.000	307.188	288.710	284.747	305.970	314.923	315.735	315.711	299.453	288.400	307.236	228.979	245.069	112.381	130.859	134.440	112.787	103.953	103.380	103.643	119.328	130.620	111.497	189.301	174.523	41.367
67.000	307.570	290.668	285.726	306.376	314.637	315.400	315.759	299.477	288.376	307.833	229.002	246.788	111.784	128.806	133.652	112.381	103.929	103.428	103.667	119.399	130.501	111.044	189.277	172.351	43.939
68.000	308.191	292.172	286.585	306.400	314.947	315.615	315.663	299.501	288.161	307.856	229.170	247.815	111.688	127.373	132.769	112.118	103.834	103.452	103.739	119.399	130.716	111.020	189.349	171.420	42.360
69.000	308.143	293.532	287.206	306.209	314.971	315.854	315.735	299.978	288.424	307.952	229.026	248.770	111.330	126.418	132.124	112.046	104.073	103.476	103.667	119.352	130.525	110.948	189.229	170.727	38.705
70.000	308.262	293.914	287.874	306.830	315.066	315.615	315.663	299.429	288.447	307.976	229.337	249.367	111.211	125.654	131.456	111.927	103.929	103.476	103.667	119.256	130.501	110.781	189.086	170.059	37.397
71.000	308.525	294.869	288.233	306.758	315.210	315.735	315.591	299.835	288.233	308.095	229.241	250.154	111.235	124.795	130.835	111.999	103.929	103.333	103.643	119.185	130.596	110.710	189.253	169.390	40.646
72.000	308.620	295.371	288.638	306.854	314.995	315.591	315.902	299.787	288.137	308.286	229.408	250.465	110.901	124.174	130.429	111.951	103.834	103.309	103.548	118.994	130.572	110.590	189.182	168.841	43.984
73.000	308.382	295.729	289.378	306.878	314.780	315.639	315.591	299.835	288.782	308.453	228.883	251.491	110.733	123.649	129.952	111.832	103.929	103.309	103.548	119.089	130.811	110.542	189.205	168.245	43.353
74.000	309.074	296.397	289.498	306.711	315.066	315.806	315.639	300.002	288.949	308.453	228.979	252.589	110.614	122.957	129.379	111.712	104.001	103.500	103.571	119.041	130.620	110.256	189.229	166.836	39.112
75.000	309.337	297.495	290.095	307.331	315.162	315.687	315.806	299.811	288.734	308.620	229.098	253.544	110.495	122.217	128.949	111.521	103.906	103.428	103.595	118.994	130.572	110.280	189.205	165.618	36.675
76.000	308.979	298.021	290.739	307.236	315.042	315.520	315.568	299.859	288.137	308.955	229.408	255.025	110.184	121.596	128.758	111.545	103.834	103.309	103.595	119.041	130.739	110.184	189.110	164.520	39.202
77.000	309.193	298.522	290.835	306.973	314.875	315.663	315.711	299.907	288.447	308.979	229.504	256.218	110.113	120.832	128.161	111.688	103.977	103.380	103.428	118.803	130.525	109.969	189.110	163.494	44.210
78.000	309.862	299.095	291.432	307.260	315.281	315.568	315.639	300.098	288.304	308.955	229.193	256.672	109.731	120.307	127.707	111.426	103.786	103.309	103.500	118.874	130.716	109.850	188.991	162.467	44.300
79.000	309.647	299.835	291.885	307.284	315.019	315.926	315.759	300.050	288.400	309.146	229.146	257.675	109.444	119.805	127.302	111.306	103.810	103.404	103.452	118.898	130.739	109.755	189.062	161.512	40.059
80.000	310.029	300.121	292.196	307.403	314.732	315.639	315.973	300.217	288.376	309.337	229.337	258.056	109.588	119.471	127.015	111.426	103.882	103.428	103.571	118.874	130.620	109.564	188.991	161.130	36.089
81.000	309.933	300.312	292.530	307.212	315.210	315.997	315.806	300.121	288.328	309.193	229.408	258.725	109.516	119.256	126.729	111.426	103.882	103.333	103.452	118.731	130.692	109.564	188.967	160.677	38.074
82.000	309.910	300.312	292.745	307.594	315.114	315.544	315.520	300.098	288.662	309.241	229.193	259.537	109.611	118.803	126.347	111.259	103.691	103.285	103.548	118.827	130.572	109.611	188.871	160.247	43.578
83.000	310.339	300.933	293.127	307.522	314.995	315.735	315.902	300.456	288.543	309.241	229.552	259.441	109.492	118.731	126.156	111.211	103.977	103.595	103.643	118.755	130.644	109.349	188.967	159.722	45.067
84.000	310.387	300.432	293.222	307.618	315.162	316.021	315.854	300.050	288.447	309.217	229.552	260.157	109.349	118.659	125.941	111.115	103.810	103.213	103.357	118.659	130.668	109.444	188.871	159.459	41.277
85.000	310.602	300.957	293.532	307.618	315.186	315.806	315.782	300.121	288.304	309.432	229.408	260.181	109.038	118.492	125.821	111.163	103.762	103.309	103.595	118.683	130.763	109.420	189.038	159.006	36.495
86.000	310.077	301.267	293.509	307.880	315.233	315.687	315.687	300.145	288.519	309.957	229.456	261.017	109.134	118.397	125.559	111.092	103.762	103.404	103.571	118.612	130.572	109.325	189.014	158.671	36.901
87.000	310.148	301.530	293.747	307.451	315.019	315.615	315.950	300.074	288.113	309.790	229.384	261.542	108.824	118.134	125.439	111.139	103.810	103.309	103.476	118.588	130.644	109.325	188.871	157.812	42.315
88.000	310.626	301.721	293.747	307.522	315.233	315.735	315.830	300.217	288.400	309.766	229.504	262.736	108.871	117.848	125.177	110.996	103.786	103.452	103.619	118.636	130.716	109.158	188.943	156.523	45.428
89.000	310.865	302.198	294.201	307.833	314.828	315.615	316.093	300.336	288.424	309.575	229.528	263.547	108.871	117.227	124.986	111.068	103.786	103.357	103.524	118.540	130.572	109.110	188.943	155.926	42.766
