-----------------------------------------------------
BloodHound 307 VOC Analyser V2017.1
RoboScientific Ltd 
Espace North
Wisbech Road
Littleport
Cambridgeshire, UK
CB6 1RA 
-----------------------------------------------------
Date = 24/03/2022
Time = 12:46:05
Data is protected by RoboScientific Limited
-----------------------------------------------------
Name of the experiment = "50a_Day 41"
-----------------------------------------------------
Repeat No. = 3/4
-----------------------------------------------------
Experimental Time (in sec) and Flow Profile :
-----------------------------------------------------
Baseline = 2.00
Absorb = 4.00
Pause = 1.00
Desorb = 5.00
Flush = 20.00
Wait = 5.00
Higher Flow (V) = 4.00
Medium Flow (V) = 3.00
Low Flow (V) = 1.00
-----------------------------------------------------
Total Profile Time = 37 in sec
-----------------------------------------------------
Acquired data point per second = 4
--------------------------------------------------
Total data point stored  = 128
-----------------------------------------------------
Acquired sensor responses from 24 sensors
-----------------------------------------------------

Data Points	 Sen-1	 Sen-2	 Sen-3	 Sen-4	 Sen-5	 Sen-6	 Sen-7	 Sen-8	 Sen-9	 Sen-10	 Sen-11	 Sen-12	 Sen-13	 Sen-14	 Sen-15	 Sen-16	 Sen-17	 Sen-18	 Sen-19	 Sen-20	 Sen-21	 Sen-22	 Sen-23	 Sen-24	Humidity (%r.h.)
0.000	306.496	306.185	272.548	293.962	312.560	314.350	315.233	278.230	285.201	302.819	223.894	225.660	113.145	113.336	147.045	125.272	106.627	104.765	103.929	139.596	133.915	116.057	194.649	194.004	39.563
1.000	306.424	306.233	272.381	293.389	312.345	314.135	315.162	278.158	285.224	302.986	224.132	225.827	113.121	113.336	147.117	125.368	106.508	104.741	103.929	139.668	134.010	116.057	194.386	193.765	39.247
2.000	306.591	306.329	272.333	293.389	312.440	314.350	315.281	278.325	285.224	302.915	223.941	226.042	113.097	113.288	146.758	125.320	106.675	104.789	103.953	139.716	133.986	115.890	194.434	193.503	39.563
3.000	306.472	306.329	272.190	293.341	312.201	314.350	315.568	278.349	285.105	303.249	224.061	226.376	112.763	113.288	147.069	125.320	106.484	104.693	104.168	139.668	134.010	115.890	194.481	193.288	41.232
4.000	306.663	306.185	272.739	293.580	312.512	314.398	315.424	277.991	284.938	303.058	223.798	226.472	113.025	113.288	146.663	125.201	106.556	104.765	104.120	139.620	133.986	115.747	194.601	193.145	41.728
5.000	307.164	306.352	272.906	293.509	312.488	314.708	315.591	278.230	284.962	303.225	224.204	226.830	112.739	113.145	146.758	125.320	106.556	104.789	104.001	139.787	133.986	115.771	194.601	193.073	40.691
6.000	306.830	306.472	272.858	294.177	312.488	314.231	315.233	278.206	284.938	303.082	223.941	226.735	112.739	113.312	146.711	125.248	106.388	104.717	103.929	139.644	134.034	115.842	194.458	192.906	39.157
7.000	306.543	306.281	272.786	293.461	312.130	314.231	315.233	278.206	285.272	303.607	223.965	226.353	112.691	113.192	146.496	125.225	106.412	104.741	104.097	139.740	134.034	115.795	194.577	193.168	39.157
8.000	306.639	306.567	272.834	293.819	312.249	314.207	315.281	277.967	284.962	303.416	223.798	226.185	112.691	113.383	146.472	125.105	106.388	104.622	104.049	139.716	134.058	115.818	194.505	193.216	40.285
9.000	307.140	306.090	272.763	293.819	312.512	314.350	315.353	278.253	284.962	302.986	223.750	226.567	112.452	113.192	146.424	125.201	106.436	104.717	104.359	139.668	134.010	115.699	194.529	193.097	41.728
10.000	305.039	305.111	272.524	293.294	312.607	313.992	315.424	278.421	285.392	302.795	223.440	254.332	113.718	114.076	146.663	125.368	106.508	104.789	104.097	139.620	133.843	116.224	194.696	167.242	41.367
11.000	281.715	287.660	270.041	292.697	312.106	314.159	315.066	277.537	285.941	293.079	221.506	290.166	140.002	132.960	148.979	126.585	106.961	105.219	104.097	140.098	133.103	126.705	196.439	129.355	41.593
12.000	239.411	242.419	263.213	289.068	310.841	312.989	314.589	275.771	286.728	266.245	220.671	304.347	180.062	177.340	156.212	129.474	107.725	105.839	104.455	141.864	132.602	153.252	197.776	114.625	49.128
13.000	239.674	255.359	252.995	283.529	310.124	312.536	314.541	272.834	286.251	243.971	219.429	313.109	178.725	162.324	165.714	134.511	108.704	106.603	104.741	144.801	132.482	173.879	198.922	106.388	46.692
14.000	264.478	280.426	242.586	275.078	308.334	311.270	313.920	268.752	286.060	225.445	218.618	317.501	153.539	138.212	176.791	143.201	110.041	107.582	104.980	148.430	132.673	192.261	199.638	100.778	35.863
15.000	284.699	296.684	235.353	265.195	306.949	309.790	313.443	264.932	285.487	227.045	217.710	322.109	135.323	122.790	186.388	153.252	111.306	108.585	105.601	152.416	133.413	191.569	200.235	97.770	29.005
16.000	299.167	306.567	233.491	256.982	305.636	308.740	313.109	260.850	284.699	242.205	217.209	323.112	120.569	112.285	188.752	162.372	113.192	109.826	106.293	157.072	134.320	176.457	200.999	96.171	35.863
17.000	308.859	313.849	235.806	248.722	303.225	306.925	312.201	255.645	283.792	255.741	216.541	325.021	110.137	105.386	182.807	170.250	115.389	111.855	106.961	162.396	135.037	162.754	201.476	94.547	49.038
18.000	315.496	318.814	240.462	241.775	300.909	304.681	310.984	250.130	283.100	267.272	216.803	326.645	102.855	100.707	175.526	176.672	117.418	113.694	107.725	167.170	135.872	150.101	202.073	93.115	53.234
19.000	320.868	321.799	244.783	235.162	298.665	302.461	310.315	244.711	281.739	278.492	216.159	327.289	97.579	97.317	168.555	183.380	119.877	116.272	108.704	173.377	136.803	139.573	202.360	92.518	42.766
20.000	325.093	324.425	249.367	228.310	295.753	299.429	309.193	238.313	281.261	287.230	216.397	327.815	95.502	94.619	162.539	190.137	122.455	118.922	109.874	179.489	137.973	131.288	202.551	92.088	30.268
21.000	327.098	326.215	253.616	222.318	293.700	296.564	307.546	232.679	279.853	293.652	215.944	329.080	92.041	92.804	157.764	196.797	125.392	122.240	111.474	186.006	138.952	124.532	202.360	91.826	29.952
22.000	329.056	328.030	257.698	217.448	290.405	292.936	305.636	226.782	279.184	298.283	216.278	328.626	90.107	91.229	153.204	201.596	128.376	125.726	113.049	192.285	140.050	120.140	202.980	91.181	41.638
23.000	331.038	329.032	261.303	220.838	287.039	289.092	303.726	221.077	277.275	302.222	215.872	329.366	88.698	90.155	149.504	198.277	132.029	129.880	115.150	197.657	141.291	115.747	202.598	90.250	53.324
24.000	330.727	329.343	264.216	226.090	283.315	285.010	301.554	218.212	276.248	306.520	215.633	329.963	87.576	89.271	146.281	192.333	135.466	133.700	117.370	200.736	142.270	112.619	202.861	90.441	50.166
25.000	332.518	330.130	267.081	230.578	279.256	280.426	299.262	220.671	275.341	307.785	216.278	330.608	87.409	88.698	144.061	188.609	139.119	137.830	119.710	198.230	143.703	110.972	203.004	89.773	37.442
26.000	332.160	330.321	267.988	229.814	278.039	279.184	297.758	220.336	274.792	307.355	216.421	330.441	86.908	88.985	143.416	188.704	140.766	139.549	121.118	198.301	143.989	111.020	203.076	90.298	28.328
27.000	332.947	330.847	268.847	229.122	278.277	279.280	297.997	220.002	275.007	307.116	216.182	330.489	87.481	88.078	142.604	189.587	140.504	139.429	121.214	198.683	144.013	111.211	203.076	89.964	32.930
28.000	332.780	330.918	268.704	227.952	278.707	279.614	297.806	219.716	275.054	306.687	216.039	330.727	86.979	88.269	142.700	190.972	140.050	139.334	121.429	199.304	143.870	112.023	203.004	89.510	46.962
29.000	332.016	330.966	268.728	226.782	278.874	279.710	297.710	219.477	275.794	307.260	216.493	330.035	87.242	87.910	143.297	192.142	139.764	139.119	121.644	199.280	143.536	112.428	203.028	90.322	54.226
30.000	333.162	331.420	269.420	230.077	278.110	278.134	296.445	221.458	275.007	308.262	216.254	331.157	86.669	87.218	142.199	188.704	140.814	140.265	122.240	197.036	143.822	110.256	203.028	90.011	45.699
31.000	332.733	331.396	271.211	234.780	274.290	275.078	294.678	222.628	274.076	308.382	215.800	331.611	87.337	88.078	140.909	183.786	144.180	143.679	124.294	195.460	144.992	109.802	202.861	89.796	32.253
32.000	331.825	330.918	272.166	237.024	271.879	273.025	293.485	221.530	274.434	306.376	216.302	330.107	87.958	88.292	139.286	181.948	147.212	145.827	125.917	196.415	144.395	112.094	202.766	91.396	28.509
33.000	329.390	331.420	272.906	236.642	271.831	273.383	293.246	219.954	276.153	300.790	216.445	328.770	89.940	88.531	139.023	182.091	147.475	145.493	125.869	199.113	142.700	117.704	202.193	92.375	38.209
34.000	327.266	329.653	273.264	234.684	273.479	274.672	294.320	224.777	277.919	293.174	216.946	326.740	91.897	89.582	138.761	183.882	145.708	143.846	125.153	193.932	141.220	125.105	201.763	93.043	50.933
35.000	324.998	328.794	273.049	231.008	275.365	276.702	295.753	231.199	279.352	284.270	217.233	324.759	94.714	90.489	139.334	187.678	143.321	141.650	123.673	186.914	139.549	135.228	201.214	94.619	52.286
36.000	321.918	327.385	272.476	226.209	278.158	279.256	296.779	237.525	280.569	273.383	218.092	322.539	97.627	92.494	140.169	192.643	140.408	139.286	122.336	180.301	138.307	146.376	200.044	97.078	40.285
37.000	317.883	326.024	271.378	220.862	280.760	282.073	298.474	242.395	281.906	260.348	218.737	319.960	102.187	93.640	141.435	198.134	137.448	136.732	120.617	174.428	137.114	159.459	199.829	99.561	29.952
38.000	313.849	323.995	269.731	216.803	283.625	284.102	299.668	246.955	282.479	247.003	219.334	317.907	105.386	95.622	142.604	201.954	134.846	134.082	119.304	169.605	136.206	172.255	198.946	101.065	31.847
39.000	307.403	321.440	267.821	222.413	286.538	286.943	301.554	250.560	283.315	233.061	219.835	315.854	111.808	97.364	144.896	196.415	132.196	131.718	117.609	165.690	135.490	185.696	198.803	104.311	43.714
40.000	300.742	318.647	265.863	229.265	289.092	289.546	302.724	254.356	283.529	220.145	220.002	312.440	118.421	100.420	147.164	189.802	129.808	129.379	116.487	162.396	135.060	198.421	198.373	106.747	51.745
41.000	291.814	316.188	263.691	236.284	291.264	291.861	304.490	256.696	283.888	223.082	220.336	310.387	127.564	103.404	149.623	182.736	127.540	127.230	115.102	159.602	134.750	196.582	198.039	109.683	47.368
42.000	281.667	312.655	260.611	242.515	293.150	293.628	304.920	258.606	284.819	232.345	220.504	307.307	138.116	106.890	152.607	176.075	125.392	124.867	113.670	157.191	134.488	186.890	197.872	111.760	36.675
43.000	269.372	308.143	257.484	248.412	295.013	295.538	306.400	261.017	284.437	240.414	220.862	305.111	150.650	110.542	156.045	169.892	123.362	122.885	112.619	155.305	134.297	178.462	197.537	114.673	30.539
44.000	257.555	304.514	254.308	253.974	296.588	297.663	307.164	262.592	284.461	247.313	221.005	302.413	161.512	114.768	159.411	164.592	121.787	120.975	111.688	153.562	134.225	171.467	197.322	117.108	36.043
45.000	246.478	299.238	251.085	258.534	298.498	299.549	308.549	264.264	284.508	253.258	221.077	300.074	172.733	119.734	163.183	160.319	120.498	119.352	110.614	152.082	134.106	165.881	197.108	119.232	46.556
46.000	236.952	293.389	247.218	262.592	299.668	300.862	309.241	265.791	284.819	258.319	221.458	297.376	182.330	126.203	167.313	156.045	118.850	117.704	109.802	151.103	134.129	160.939	197.275	121.524	50.166
47.000	229.790	286.012	243.995	266.388	301.220	302.795	309.719	266.794	284.699	262.282	221.554	295.800	190.065	133.676	171.420	152.607	117.561	116.296	109.229	150.077	134.082	156.714	196.869	124.055	42.947
48.000	223.392	277.322	240.796	268.609	301.649	303.512	310.363	267.296	284.699	265.624	221.721	293.341	196.630	142.079	175.287	149.671	116.797	115.222	108.656	149.217	134.129	153.252	196.797	126.060	34.239
49.000	220.599	266.770	237.430	271.569	302.724	304.657	311.151	268.513	284.866	268.489	222.008	291.837	199.113	152.393	179.202	147.212	115.842	113.741	108.012	148.334	134.034	150.220	196.535	127.134	32.434
50.000	226.472	254.046	234.088	274.290	303.703	305.923	311.414	269.182	284.890	271.927	221.936	289.999	192.882	164.711	182.974	144.371	114.816	112.596	107.654	147.522	133.962	146.854	196.582	129.402	40.014
51.000	233.992	240.629	231.414	276.320	304.848	307.642	312.058	270.208	284.651	274.386	222.008	287.588	186.054	177.651	186.699	142.318	114.243	111.426	107.296	147.069	134.010	144.467	196.272	131.288	47.820
52.000	240.175	229.623	230.101	277.967	305.254	308.143	312.130	270.518	284.914	276.821	221.960	285.988	179.608	189.611	189.349	140.718	113.336	110.542	106.938	146.520	134.082	142.413	196.224	133.413	47.188
53.000	246.096	220.933	230.053	279.734	305.947	308.931	312.607	271.115	284.962	278.468	222.055	283.625	173.616	198.540	190.877	138.832	112.667	109.755	106.532	145.875	134.034	140.551	196.272	135.156	40.149
54.000	251.420	229.552	230.817	280.951	306.615	309.671	312.846	271.831	285.057	279.853	222.461	282.527	167.863	189.778	190.351	137.830	112.190	109.134	106.341	145.422	134.058	139.191	196.176	136.469	33.427
55.000	256.027	239.578	232.631	281.978	307.116	310.196	313.133	272.070	284.747	281.166	222.175	280.378	163.637	179.513	189.158	136.923	111.784	108.513	106.174	145.159	134.201	138.021	196.105	138.116	35.322
56.000	260.014	248.340	233.491	282.527	307.761	310.936	313.276	272.882	285.033	282.145	222.485	279.280	159.364	170.895	187.200	135.848	111.330	108.298	105.887	144.634	133.962	136.803	196.009	139.382	43.353
57.000	263.834	256.099	235.759	283.816	307.904	311.127	313.586	273.216	285.010	283.386	222.557	277.704	155.806	163.732	185.242	135.084	111.044	107.869	105.768	144.419	134.034	135.896	195.866	141.077	47.594
58.000	267.439	262.234	237.645	284.508	307.952	311.461	313.801	273.335	285.129	284.556	222.318	275.771	151.796	157.048	183.356	134.297	110.590	107.463	105.601	144.037	134.082	134.750	195.818	142.652	44.165
59.000	270.781	267.701	238.982	285.654	308.477	311.987	313.729	273.837	285.105	285.153	222.915	273.717	148.955	151.796	181.279	133.724	110.280	107.129	105.457	143.774	134.082	133.819	195.627	143.989	37.893
60.000	272.882	272.118	240.772	285.726	309.122	312.010	313.753	273.980	284.890	285.965	222.748	272.763	146.472	147.236	179.489	132.912	109.946	106.938	105.314	143.703	134.082	132.888	195.675	145.804	34.148
61.000	275.198	275.747	242.563	286.108	309.170	312.178	314.040	274.147	284.962	286.681	222.700	271.688	144.443	143.727	177.579	132.625	109.755	106.699	105.195	143.536	134.082	132.339	195.532	146.806	38.164
62.000	276.654	278.612	244.019	286.681	308.979	312.297	314.016	274.458	284.962	287.636	222.533	269.993	142.724	140.766	175.932	132.172	109.659	106.627	105.075	143.273	134.177	131.742	195.508	148.024	45.248
63.000	278.707	281.142	245.571	287.230	309.719	312.225	313.849	274.338	284.771	288.137	222.986	268.967	140.790	138.260	174.261	131.527	109.444	106.579	105.219	143.106	133.986	131.050	195.508	149.504	46.195
64.000	279.757	283.195	247.075	287.755	309.504	312.583	314.040	274.434	284.890	288.519	222.915	267.510	139.620	136.111	172.852	131.336	109.373	106.412	105.028	142.843	134.034	130.835	195.436	150.578	41.322
65.000	281.190	284.866	248.149	287.970	310.101	312.870	314.207	275.198	284.842	288.925	223.273	266.866	138.236	134.631	171.587	131.002	109.253	106.293	104.980	142.676	134.106	130.357	195.580	151.605	35.953
66.000	282.431	286.585	249.008	287.874	309.933	313.061	314.446	274.983	285.033	289.164	222.700	265.768	137.233	132.960	170.369	130.644	109.086	106.126	104.813	142.724	134.153	130.119	195.508	152.798	35.863
67.000	283.291	287.898	250.083	288.376	310.124	313.037	314.207	275.054	284.699	289.164	223.058	264.598	136.039	131.718	169.247	130.429	108.776	106.102	104.765	142.509	134.082	129.761	195.365	153.873	41.232
68.000	284.604	289.116	251.205	288.805	309.838	312.989	314.231	275.078	285.415	289.880	222.939	263.261	135.275	130.286	168.459	130.286	108.847	106.078	104.789	142.461	133.986	129.450	195.365	155.138	45.789
69.000	285.630	290.429	251.969	288.758	310.339	313.109	314.780	275.436	284.866	289.784	223.249	262.163	134.153	129.331	167.481	130.143	108.824	106.006	104.741	142.366	134.082	129.211	195.389	156.212	43.669
70.000	286.203	291.026	252.852	289.044	310.435	313.013	314.851	275.699	284.938	290.238	222.867	260.945	133.270	128.471	166.573	129.737	108.537	105.935	104.765	142.246	134.082	128.949	195.365	157.215	39.066
71.000	286.872	291.551	253.425	289.164	310.363	313.204	314.804	275.389	284.842	290.596	223.201	259.942	132.697	127.660	165.714	129.522	108.442	105.863	104.717	142.127	134.153	128.615	195.198	158.695	35.682
72.000	287.349	292.888	254.666	289.164	310.387	312.989	314.422	275.603	284.986	290.524	223.249	258.009	131.861	126.657	165.046	129.188	108.274	105.625	104.622	142.032	134.201	128.471	195.174	159.769	38.299
73.000	288.209	293.604	254.762	289.737	310.602	313.419	314.565	275.580	285.081	291.002	223.058	257.030	131.241	126.084	164.473	129.307	108.394	105.625	104.526	141.888	134.153	128.304	195.341	160.963	43.759
74.000	289.116	294.153	255.645	289.617	310.554	313.491	315.066	275.818	284.986	291.193	223.130	256.099	130.620	125.463	163.828	129.379	108.370	105.505	104.502	141.841	134.082	128.161	195.341	162.085	44.842
75.000	289.713	294.822	256.266	290.142	310.626	313.228	314.828	276.439	285.081	291.169	223.273	255.168	130.190	124.795	163.136	129.044	108.203	105.744	104.574	141.721	134.129	127.707	195.293	163.088	41.909
76.000	290.214	294.822	256.433	289.808	310.865	313.156	314.899	276.224	284.962	291.527	222.533	253.735	129.546	124.317	162.610	128.877	108.155	105.505	104.479	141.793	134.106	127.564	195.222	164.640	37.623
77.000	290.787	295.991	257.197	290.119	311.438	313.252	314.517	275.890	284.986	291.885	223.225	252.566	128.806	123.553	161.990	128.734	108.131	105.601	104.622	141.793	134.106	127.278	195.078	165.929	36.810
78.000	291.861	296.230	257.436	290.238	311.032	313.514	315.066	276.487	285.153	291.981	223.273	251.348	128.424	123.243	161.488	128.734	108.083	105.481	104.598	141.602	134.106	126.991	194.887	167.146	40.285
79.000	291.646	297.113	258.056	290.668	311.103	313.300	314.589	276.033	285.033	292.100	223.416	250.512	128.137	123.004	161.130	128.471	107.964	105.457	104.574	141.745	134.129	127.015	195.102	167.982	44.481
80.000	291.909	297.137	258.820	290.357	310.888	313.419	314.828	276.176	284.938	292.100	223.058	249.868	127.875	122.790	160.653	128.495	108.036	105.505	104.502	141.482	134.129	127.015	195.126	168.459	43.488
81.000	292.458	297.328	258.606	290.548	311.247	313.896	315.066	276.535	284.938	292.124	223.153	249.104	127.302	122.431	160.366	128.424	107.940	105.410	104.455	141.506	134.010	126.920	195.102	169.009	39.924
82.000	292.649	297.233	259.202	290.596	311.127	313.491	314.780	276.105	284.675	291.981	223.082	248.412	127.421	122.169	160.128	128.233	107.916	105.481	104.526	141.435	134.010	126.991	195.126	169.772	37.217
83.000	292.816	297.734	259.179	290.620	311.103	313.634	314.851	276.367	285.153	292.291	223.273	247.719	126.824	122.002	159.674	128.280	107.940	105.314	104.479	141.363	134.058	126.848	195.126	170.560	38.164
84.000	293.079	298.068	259.799	290.739	310.769	313.705	314.995	276.200	285.010	292.267	223.392	246.693	126.371	121.691	159.579	128.209	107.678	105.505	104.311	141.387	133.986	126.609	195.174	171.587	42.270
85.000	293.795	297.997	260.110	290.644	311.151	313.419	314.708	276.558	285.129	292.792	223.106	246.167	126.227	121.262	159.292	128.066	107.916	105.314	104.407	141.172	134.034	126.585	195.126	172.399	44.255
86.000	294.034	298.379	260.110	291.217	311.151	313.538	314.923	276.654	284.842	292.745	223.368	245.069	125.463	121.071	158.886	128.137	107.773	105.457	104.383	141.315	134.082	126.275	195.126	173.282	42.631
87.000	294.368	298.832	260.253	290.859	311.199	313.705	315.066	276.654	285.057	292.983	223.488	244.281	125.320	120.951	158.695	127.922	107.701	105.266	104.335	141.124	134.201	126.132	195.078	174.547	39.202
88.000	294.965	299.214	260.993	290.596	311.175	313.849	315.042	276.535	284.580	292.912	223.368	242.849	124.771	120.378	158.289	127.851	107.725	105.314	104.502	141.291	134.058	125.845	194.959	175.693	37.803
89.000	295.466	299.310	261.208	290.906	311.199	313.682	315.042	276.606	285.057	293.700	223.392	241.632	124.437	119.972	157.979	127.946	107.701	105.362	104.335	141.148	134.034	125.392	195.007	176.791	39.292
