-----------------------------------------------------
BloodHound 307 VOC Analyser V2017.1
RoboScientific Ltd 
Espace North
Wisbech Road
Littleport
Cambridgeshire, UK
CB6 1RA 
-----------------------------------------------------
Date = 24/03/2022
Time = 12:26:48
Data is protected by RoboScientific Limited
-----------------------------------------------------
Name of the experiment = "50a_Day 34"
-----------------------------------------------------
Repeat No. = 4/4
-----------------------------------------------------
Experimental Time (in sec) and Flow Profile :
-----------------------------------------------------
Baseline = 2.00
Absorb = 4.00
Pause = 1.00
Desorb = 5.00
Flush = 20.00
Wait = 5.00
Higher Flow (V) = 4.00
Medium Flow (V) = 3.00
Low Flow (V) = 1.00
-----------------------------------------------------
Total Profile Time = 37 in sec
-----------------------------------------------------
Acquired data point per second = 4
--------------------------------------------------
Total data point stored  = 128
-----------------------------------------------------
Acquired sensor responses from 24 sensors
-----------------------------------------------------

Data Points	 Sen-1	 Sen-2	 Sen-3	 Sen-4	 Sen-5	 Sen-6	 Sen-7	 Sen-8	 Sen-9	 Sen-10	 Sen-11	 Sen-12	 Sen-13	 Sen-14	 Sen-15	 Sen-16	 Sen-17	 Sen-18	 Sen-19	 Sen-20	 Sen-21	 Sen-22	 Sen-23	 Sen-24	Humidity (%r.h.)
0.000	306.520	307.618	277.036	293.700	312.440	314.302	315.186	277.991	284.914	303.201	223.679	235.305	112.787	111.975	142.270	125.081	106.317	104.574	103.858	139.907	134.129	115.890	194.601	183.882	39.788
1.000	306.543	308.047	277.943	294.225	312.631	314.231	315.377	277.871	284.651	303.010	223.894	235.878	112.691	111.784	141.817	125.034	106.436	104.741	104.025	139.907	134.225	115.723	194.553	183.094	42.811
2.000	306.925	307.594	278.062	293.556	312.536	314.159	315.257	278.158	285.177	303.368	223.822	235.735	112.810	111.688	141.411	124.914	106.484	104.813	104.049	139.835	134.129	115.818	194.529	183.619	42.586
3.000	306.352	307.284	278.134	293.843	312.416	314.517	315.138	278.373	284.699	303.058	223.655	235.902	112.906	111.760	141.315	124.890	106.388	104.789	103.858	139.787	134.225	115.986	194.649	183.834	40.285
4.000	306.567	307.284	278.564	293.556	312.727	314.469	315.305	277.991	284.890	303.225	223.726	235.663	112.667	111.903	141.244	124.962	106.365	104.765	104.025	139.859	134.201	115.771	194.529	183.643	38.886
5.000	306.830	307.666	278.015	294.034	312.751	314.302	315.400	278.062	284.842	303.297	223.894	236.260	112.261	111.760	141.148	125.010	106.317	104.646	104.001	139.931	134.153	115.604	194.625	182.640	38.976
6.000	307.164	307.928	278.468	294.129	312.488	314.278	315.424	278.468	284.890	303.512	223.655	237.310	112.214	111.664	140.814	124.890	106.221	104.717	104.073	139.859	134.153	115.532	194.577	181.661	41.413
7.000	307.188	308.238	278.779	294.058	312.273	313.992	315.305	278.230	284.699	303.249	223.965	237.979	112.261	111.378	140.718	124.795	106.245	104.646	104.049	139.764	134.201	115.293	194.458	180.969	43.488
8.000	306.806	308.286	278.826	293.914	312.464	314.398	315.162	278.039	284.723	303.655	223.798	239.125	112.428	111.283	140.265	124.676	106.317	104.646	104.001	139.835	134.273	115.341	194.434	180.253	41.683
9.000	307.236	307.928	279.184	294.344	312.440	314.493	315.472	278.468	284.723	303.679	223.655	239.626	112.214	111.163	140.002	124.628	106.269	104.765	104.001	139.859	134.225	115.102	194.410	179.608	39.202
10.000	305.302	306.663	279.065	293.843	312.798	314.111	315.186	278.110	284.842	302.557	223.440	245.881	113.407	112.046	140.026	124.819	106.412	104.670	103.953	139.549	133.986	115.890	194.649	170.608	38.254
11.000	276.869	288.877	276.630	293.031	312.010	313.992	315.210	277.800	285.702	292.386	221.745	286.084	140.766	129.164	142.843	125.989	106.794	105.171	104.120	140.146	133.246	125.511	196.630	131.408	41.774
12.000	234.613	244.592	269.492	289.760	310.984	312.989	314.828	275.890	286.036	264.287	220.575	301.793	182.545	172.112	149.026	128.567	107.487	105.720	104.216	141.482	132.745	153.157	198.158	116.415	34.419
13.000	240.390	252.852	261.017	285.081	310.005	312.201	314.613	273.168	286.585	244.019	219.000	310.650	179.632	166.884	158.576	133.700	108.585	106.436	104.574	144.443	132.578	174.929	199.113	108.155	31.983
14.000	264.407	278.468	250.560	277.394	309.170	311.366	314.111	270.113	286.036	227.093	218.116	315.973	155.496	141.339	169.343	141.673	109.564	107.439	104.956	147.833	132.888	192.906	200.092	102.784	41.458
15.000	283.028	293.556	241.154	267.916	307.331	310.292	313.562	265.887	285.988	224.920	217.686	319.196	136.588	124.437	179.561	151.342	111.354	108.489	105.362	151.676	133.079	194.123	200.832	99.752	51.925
16.000	297.257	305.039	234.923	257.985	305.278	308.382	312.703	261.423	284.866	238.337	216.684	322.061	121.739	113.646	187.463	160.056	113.049	109.946	106.006	155.806	134.106	179.823	201.429	96.624	49.489
17.000	307.403	312.201	234.517	249.701	303.368	306.830	312.488	256.743	284.293	251.730	216.755	323.732	110.924	106.532	186.890	168.340	114.792	111.402	106.484	160.629	134.678	165.809	201.954	95.550	37.442
18.000	314.159	317.119	237.072	242.586	301.530	305.374	311.724	251.491	283.100	264.383	215.753	326.358	104.049	101.566	180.587	175.836	117.012	113.336	107.415	166.526	135.824	153.944	202.312	94.738	28.373
19.000	320.509	321.035	241.799	236.188	299.214	302.748	310.721	245.977	282.073	275.747	215.944	326.024	99.465	98.009	173.664	183.046	119.638	115.651	108.179	171.945	136.636	142.557	202.766	92.852	34.239
20.000	324.043	323.947	245.929	229.623	296.875	300.312	309.695	240.175	281.429	284.819	215.800	326.764	95.645	95.311	168.030	189.707	121.930	118.564	109.588	178.080	137.687	133.700	203.100	92.900	48.316
21.000	326.072	325.857	250.011	222.819	293.843	297.137	308.358	233.944	280.044	291.527	215.777	327.719	92.422	93.330	162.276	195.890	124.723	121.476	110.996	183.929	138.474	126.753	203.028	92.375	53.685
22.000	327.791	327.457	254.022	217.352	290.596	293.604	306.520	227.546	278.850	296.779	215.800	328.961	90.751	91.300	157.239	201.262	127.755	124.747	112.285	189.969	139.596	121.500	203.052	91.635	43.939
23.000	330.059	327.958	257.484	219.978	287.540	289.665	304.848	222.461	277.991	300.885	215.729	329.152	89.510	90.178	153.515	198.301	131.121	128.686	113.980	195.818	140.838	117.561	203.315	91.897	30.810
24.000	330.894	329.128	260.444	225.971	284.317	286.418	303.010	219.167	277.155	304.586	215.538	328.865	88.030	89.605	149.910	192.954	134.750	132.411	116.105	200.569	141.936	113.741	203.339	91.635	29.411
25.000	332.016	330.321	263.309	230.196	280.211	281.691	300.551	219.286	275.532	306.567	215.824	329.629	87.314	89.510	147.546	188.513	139.071	137.114	118.349	199.614	143.321	112.046	203.076	91.229	41.864
26.000	331.873	330.536	264.431	230.101	278.635	279.853	299.429	219.859	275.580	306.305	215.920	329.414	87.194	88.388	146.854	188.823	140.408	138.713	119.614	199.352	143.655	112.118	203.721	90.680	53.189
27.000	331.682	330.536	265.529	229.408	278.755	279.925	298.904	218.952	275.317	306.687	215.347	330.011	87.409	88.698	145.780	189.635	140.313	138.832	119.972	199.686	143.750	112.237	203.267	91.253	49.895
28.000	331.778	330.560	265.863	228.286	279.471	280.378	298.713	219.071	275.436	306.114	215.729	329.916	87.457	88.054	145.684	190.781	139.931	138.474	120.235	199.734	143.583	112.739	203.506	91.420	36.720
29.000	332.661	330.918	265.409	227.331	279.399	280.044	298.474	219.119	275.675	305.803	215.609	330.250	87.481	89.152	145.971	191.999	139.286	138.403	120.474	199.781	143.345	112.810	203.530	90.990	28.193
30.000	332.589	330.632	266.818	230.745	278.182	278.588	297.567	220.551	275.556	307.833	215.466	329.677	86.932	88.364	144.944	188.322	140.575	139.907	121.238	198.110	143.894	111.115	203.482	91.468	34.239
31.000	332.566	331.348	268.250	235.090	274.792	275.269	295.896	221.458	274.219	307.475	215.586	329.008	87.170	88.889	143.607	183.547	144.013	143.368	123.386	196.845	144.920	110.757	203.124	90.513	48.767
32.000	330.727	330.966	269.182	236.499	272.381	273.932	295.156	220.241	275.389	305.039	215.824	328.435	89.343	88.507	142.318	182.187	146.544	145.016	124.365	198.063	143.727	114.100	203.577	91.515	53.640
33.000	328.722	330.680	269.993	236.093	272.810	274.505	295.227	221.769	276.749	298.498	216.039	327.051	90.918	89.009	141.888	182.664	146.066	144.180	124.103	196.821	141.936	120.832	202.718	94.118	43.217
34.000	326.167	328.817	269.898	233.610	274.863	276.105	296.302	228.048	278.659	289.880	216.732	324.998	93.449	90.155	141.936	185.338	143.918	142.246	123.148	189.707	140.313	129.737	201.882	94.786	30.719
35.000	322.682	327.624	269.110	228.740	277.298	278.349	297.376	234.851	280.879	278.158	217.257	323.088	96.911	91.253	142.867	189.731	141.172	139.859	121.715	182.593	138.618	140.599	201.309	96.457	30.223
36.000	318.600	326.215	268.370	223.583	280.450	281.452	298.808	241.106	281.142	264.741	218.116	320.748	100.134	93.306	143.392	194.983	138.260	137.185	120.378	176.051	137.424	153.873	200.235	98.558	41.458
37.000	314.207	324.210	266.985	217.854	283.219	283.959	300.169	245.977	282.789	249.940	218.761	317.239	104.884	95.574	145.302	200.665	135.490	134.631	118.850	171.109	136.421	168.268	199.758	101.900	52.016
38.000	309.337	321.679	265.457	220.313	286.084	286.752	301.817	250.369	282.813	236.093	219.262	314.565	110.733	97.794	146.878	198.683	132.411	132.220	117.418	166.382	135.801	183.142	199.256	104.479	48.857
39.000	301.578	318.409	263.428	226.949	288.614	288.925	303.058	253.950	283.434	221.936	219.405	312.201	117.728	101.136	149.552	191.378	129.999	129.426	115.866	162.873	135.299	197.561	198.731	107.391	37.532
40.000	291.599	314.875	260.802	234.374	291.026	291.288	304.299	256.791	283.792	223.631	220.241	308.979	128.257	104.264	152.202	183.906	127.564	127.206	114.529	159.579	134.726	195.126	198.373	110.184	29.997
41.000	279.853	310.936	258.438	241.584	293.365	293.700	305.756	259.226	284.389	234.374	220.336	305.994	139.286	107.892	155.186	176.934	125.416	125.010	113.383	157.239	134.678	184.813	198.134	113.145	35.276
42.000	266.150	306.376	254.905	247.958	295.108	295.609	306.734	261.112	284.938	243.374	220.360	303.106	153.228	112.572	158.576	170.680	123.506	123.076	112.309	155.329	134.320	175.836	197.919	115.795	46.917
43.000	251.897	300.862	251.993	253.616	296.970	297.782	308.000	262.616	284.842	251.109	220.671	300.838	167.194	117.991	162.587	165.213	121.835	120.975	111.187	153.658	134.320	168.292	197.681	118.707	50.436
44.000	239.626	295.418	248.221	258.582	298.665	300.002	308.597	264.431	284.651	257.293	220.933	297.400	179.871	124.413	166.717	159.984	119.949	118.994	110.351	152.130	134.392	162.085	197.346	121.142	42.811
45.000	229.098	287.397	244.616	262.760	299.931	301.244	309.289	265.505	284.556	261.924	221.077	294.941	190.829	131.790	170.990	155.759	118.564	117.227	109.707	151.103	134.106	156.809	197.155	123.840	33.787
46.000	221.435	277.728	241.011	266.723	301.506	303.034	310.220	266.555	284.747	266.293	221.411	292.840	198.325	140.862	175.359	152.130	117.394	115.890	108.871	149.958	134.129	152.727	197.131	125.893	32.614
47.000	221.817	266.866	237.597	269.468	302.485	304.299	310.650	267.749	284.842	269.802	221.339	290.286	198.015	152.106	179.131	149.074	116.296	114.505	108.083	149.003	134.129	149.432	196.893	128.161	40.285
48.000	227.904	254.189	234.660	272.190	303.583	305.493	311.390	268.776	284.914	272.404	221.506	288.113	191.879	164.616	183.046	146.520	115.413	113.360	107.821	148.286	134.153	146.448	196.869	130.453	48.135
49.000	235.257	241.059	232.249	274.649	304.490	306.639	311.748	269.802	284.699	275.078	221.602	286.299	185.099	178.582	186.603	144.252	114.529	112.094	107.320	147.666	134.225	143.798	196.654	132.029	46.737
50.000	242.014	228.406	231.103	276.917	305.016	307.952	312.392	270.113	284.699	277.609	221.793	284.270	177.412	191.259	188.871	141.888	113.694	110.948	106.938	146.830	134.082	141.291	196.558	134.297	39.518
51.000	247.982	222.795	230.841	278.683	305.374	308.334	312.273	270.662	285.033	280.307	221.769	281.882	170.799	196.893	190.304	139.716	112.930	110.089	106.579	146.281	134.177	139.334	196.439	136.708	33.246
52.000	253.902	232.082	232.178	280.235	306.257	309.456	312.631	271.306	284.890	281.763	222.270	279.662	165.260	186.937	188.919	138.188	112.285	109.253	106.412	145.851	134.153	137.424	196.535	138.522	36.224
53.000	258.653	242.801	234.183	281.452	306.854	310.053	313.252	271.879	284.604	282.813	222.031	277.943	160.987	176.982	186.746	137.137	111.832	108.776	106.126	145.350	134.106	136.039	196.296	140.360	44.210
54.000	262.712	252.422	236.284	282.956	307.355	310.650	313.467	272.572	284.842	284.222	222.270	275.603	156.761	167.528	184.288	135.992	111.378	108.251	105.887	144.944	134.153	134.846	196.105	142.223	47.323
55.000	266.173	260.563	238.576	283.697	307.737	311.175	313.634	273.073	284.628	285.057	222.151	273.956	153.467	159.197	181.757	134.917	110.877	107.821	105.720	144.681	134.225	133.938	196.081	143.822	42.541
56.000	269.038	266.603	240.533	284.651	308.310	311.581	313.395	273.168	284.962	286.442	222.199	272.930	150.602	152.679	179.393	134.368	110.542	107.511	105.553	144.443	134.320	132.983	196.081	145.589	36.269
57.000	272.142	271.808	242.706	285.057	308.716	312.201	314.087	273.550	284.866	286.824	222.413	271.068	147.713	147.355	177.269	133.533	110.280	107.200	105.338	143.941	134.201	132.243	196.105	146.949	34.600
58.000	274.147	276.009	244.616	285.750	309.002	311.915	313.849	273.765	285.057	287.612	222.413	269.587	145.565	143.249	175.096	133.103	110.089	106.985	105.219	143.846	134.249	131.623	195.890	148.597	39.833
59.000	276.081	279.352	246.406	286.609	309.074	312.464	314.207	274.123	284.866	287.851	222.748	267.868	143.655	140.074	173.258	132.434	109.731	106.818	105.171	143.655	134.201	131.026	195.914	149.814	45.925
60.000	278.301	281.834	248.197	286.728	309.337	312.392	314.828	274.195	284.842	288.471	222.581	266.818	141.841	137.519	171.444	132.029	109.420	106.532	105.147	143.536	134.297	130.572	195.842	151.390	44.706
61.000	279.829	284.270	249.796	287.612	309.790	312.798	314.064	274.410	284.819	288.901	222.437	265.386	140.289	135.323	169.940	131.527	109.277	106.532	105.075	143.225	134.201	130.071	195.818	152.703	39.788
62.000	280.760	286.752	250.823	287.492	309.981	312.607	314.350	274.481	284.604	289.259	222.509	264.073	138.785	133.318	168.436	131.241	109.134	106.293	105.028	143.034	134.249	129.689	195.675	154.255	35.186
63.000	282.336	287.540	252.040	288.065	309.910	312.942	314.517	274.649	284.747	289.593	222.819	261.972	137.519	131.623	167.290	130.835	109.086	106.221	104.717	142.939	134.249	129.235	195.627	155.759	37.397
64.000	283.076	289.187	253.019	288.352	309.838	312.894	314.398	274.863	285.010	289.880	222.986	260.993	136.350	130.453	166.263	130.716	108.800	106.197	104.861	142.724	134.153	129.164	195.699	157.167	43.488
65.000	284.174	290.071	254.452	288.185	310.005	312.703	314.398	275.078	285.201	290.238	222.366	259.799	135.729	129.331	164.998	130.310	108.752	106.126	104.861	142.700	134.201	128.758	195.795	158.480	45.248
66.000	285.010	291.408	255.550	288.901	310.196	313.252	314.660	275.126	284.604	290.453	222.676	258.176	134.464	128.280	163.947	130.190	108.442	105.983	104.670	142.533	134.153	128.519	195.556	160.032	42.180
67.000	285.678	292.148	256.361	288.996	310.387	313.156	314.398	275.269	284.866	291.073	222.700	257.197	133.747	127.349	163.255	129.928	108.561	106.006	104.693	142.390	134.225	128.233	195.651	161.274	37.623
68.000	286.633	292.816	257.078	289.259	310.268	313.133	314.828	275.245	284.771	291.097	222.652	255.430	133.031	126.490	162.443	129.784	108.298	105.744	104.502	142.366	134.249	128.161	195.508	162.778	36.495
69.000	287.373	293.819	257.436	289.307	310.506	313.562	314.828	275.627	284.866	291.432	222.772	254.213	132.267	125.965	161.942	129.426	108.227	105.863	104.717	142.246	134.273	127.994	195.723	163.756	40.149
70.000	288.424	294.559	258.438	289.450	310.602	313.324	314.660	275.508	284.986	291.503	222.772	252.661	131.241	125.105	161.106	129.402	108.298	105.887	104.693	142.223	134.106	127.540	195.604	165.189	44.571
71.000	289.474	295.800	259.035	289.665	311.008	313.467	314.708	275.603	284.938	291.766	223.034	250.799	130.501	124.222	160.366	129.211	108.274	105.672	104.526	141.984	134.129	127.182	195.508	167.457	43.533
72.000	290.119	296.135	260.062	289.808	310.650	313.371	314.708	275.771	284.962	292.124	222.676	248.889	129.784	123.243	159.483	128.949	108.155	105.601	104.646	142.079	134.225	126.753	195.508	169.414	40.059
73.000	290.763	296.803	260.706	289.522	310.411	313.514	314.732	276.105	284.675	292.649	223.082	247.242	128.901	122.646	158.791	128.830	108.012	105.577	104.526	141.817	134.177	126.442	195.556	171.062	37.352
74.000	291.217	297.472	261.041	289.784	310.817	313.133	314.780	275.985	284.675	292.816	222.724	245.475	128.376	122.026	157.836	128.639	107.988	105.577	104.479	141.817	134.320	126.108	195.460	172.781	38.615
75.000	292.315	298.307	261.661	290.262	310.936	313.371	314.637	276.129	285.153	293.485	223.225	243.159	127.182	121.381	157.334	128.495	107.988	105.625	104.550	141.745	134.249	125.702	195.436	174.595	42.270
76.000	292.864	298.761	262.640	290.453	311.008	313.491	314.995	276.391	284.795	293.700	223.249	241.464	126.896	120.713	156.690	128.424	107.940	105.625	104.431	141.673	134.249	125.368	195.413	176.385	44.165
77.000	293.318	299.310	263.333	290.787	311.151	313.395	314.732	276.009	285.105	294.177	223.177	239.889	126.036	120.354	156.117	128.257	107.892	105.505	104.407	141.650	134.249	125.129	195.365	178.200	41.774
78.000	293.652	299.549	263.547	290.715	311.175	313.801	314.589	276.176	284.819	294.034	222.867	238.934	125.798	119.901	155.377	128.042	107.749	105.457	104.311	141.578	134.106	124.867	195.389	179.584	39.427
79.000	294.845	299.692	264.383	290.954	311.056	313.610	315.090	276.749	284.842	294.344	223.106	237.549	125.272	119.447	154.804	127.922	107.797	105.434	104.311	141.554	134.249	124.604	195.365	180.993	38.344
80.000	295.036	300.193	265.099	290.906	311.270	313.658	315.042	276.153	284.628	294.726	223.058	235.997	124.747	119.137	154.302	127.755	107.654	105.601	104.383	141.482	134.129	124.461	195.269	182.139	40.014
81.000	295.227	300.551	265.362	291.145	311.414	313.658	314.875	276.248	284.938	295.156	223.058	234.804	124.365	119.065	153.920	127.779	107.630	105.410	104.479	141.530	134.273	124.341	195.293	183.500	42.902
82.000	295.251	301.029	265.839	291.050	311.175	313.849	314.851	276.296	284.795	294.869	223.297	233.729	124.103	118.636	153.539	127.707	107.439	105.362	104.288	141.482	134.249	124.079	195.222	184.550	42.495
83.000	296.159	301.244	266.341	291.503	311.366	313.896	314.684	276.391	284.675	294.941	223.034	233.109	123.840	118.421	152.918	127.445	107.463	105.362	104.264	141.268	134.082	123.959	195.245	185.744	40.014
84.000	296.087	301.220	266.699	291.169	311.485	313.467	314.756	276.535	284.986	295.347	223.416	231.843	123.267	118.277	152.798	127.469	107.391	105.171	104.359	141.291	134.201	123.935	195.126	186.675	39.112
85.000	296.708	301.267	266.937	291.264	311.748	313.753	314.804	276.582	284.771	295.442	223.082	231.079	122.957	118.039	152.369	127.397	107.511	105.338	104.264	141.148	134.273	123.697	195.269	187.654	39.066
86.000	296.612	301.458	267.343	291.766	311.628	313.753	314.875	276.558	284.866	295.442	223.416	230.101	122.742	117.967	152.154	127.397	107.391	105.195	104.240	141.268	134.153	123.553	195.341	188.298	41.367
87.000	296.970	301.984	267.367	291.384	311.509	313.801	314.971	276.606	284.890	295.824	223.010	229.217	122.885	117.800	151.844	127.254	107.439	105.457	104.383	141.291	134.129	123.506	195.198	188.919	42.315
88.000	296.779	302.031	267.343	291.479	311.819	313.682	314.899	276.535	284.890	295.466	223.607	228.716	122.360	117.800	151.772	127.349	107.320	105.195	104.192	141.077	134.153	123.506	195.293	189.635	41.052
89.000	297.113	301.864	267.582	291.408	311.605	313.873	315.114	276.630	284.675	295.800	223.321	228.931	122.503	117.657	151.509	127.158	107.343	105.123	104.288	141.053	134.273	123.291	195.102	190.017	39.518
