-----------------------------------------------------
BloodHound 307 VOC Analyser V2017.1
RoboScientific Ltd 
Espace North
Wisbech Road
Littleport
Cambridgeshire, UK
CB6 1RA 
-----------------------------------------------------
Date = 24/03/2022
Time = 12:01:42
Data is protected by RoboScientific Limited
-----------------------------------------------------
Name of the experiment = "50a_Day 26"
-----------------------------------------------------
Repeat No. = 2/4
-----------------------------------------------------
Experimental Time (in sec) and Flow Profile :
-----------------------------------------------------
Baseline = 2.00
Absorb = 4.00
Pause = 1.00
Desorb = 5.00
Flush = 20.00
Wait = 5.00
Higher Flow (V) = 4.00
Medium Flow (V) = 3.00
Low Flow (V) = 1.00
-----------------------------------------------------
Total Profile Time = 37 in sec
-----------------------------------------------------
Acquired data point per second = 4
--------------------------------------------------
Total data point stored  = 128
-----------------------------------------------------
Acquired sensor responses from 24 sensors
-----------------------------------------------------

Data Points	 Sen-1	 Sen-2	 Sen-3	 Sen-4	 Sen-5	 Sen-6	 Sen-7	 Sen-8	 Sen-9	 Sen-10	 Sen-11	 Sen-12	 Sen-13	 Sen-14	 Sen-15	 Sen-16	 Sen-17	 Sen-18	 Sen-19	 Sen-20	 Sen-21	 Sen-22	 Sen-23	 Sen-24	Humidity (%r.h.)
0.000	305.994	306.329	279.375	293.747	312.655	314.493	315.400	277.418	284.580	301.793	222.628	230.268	113.288	112.667	139.931	125.439	106.436	105.004	103.977	140.504	134.225	116.964	195.532	189.301	38.886
1.000	306.806	306.806	279.781	293.819	312.870	314.374	315.210	277.418	284.771	301.745	222.915	230.125	113.121	112.834	140.074	125.368	106.245	104.884	103.977	140.504	134.201	117.036	195.508	189.134	40.871
2.000	306.257	306.591	279.256	293.509	312.727	314.016	315.448	277.728	284.866	302.055	223.058	230.077	113.216	112.858	139.907	125.368	106.412	104.884	104.049	140.504	134.225	117.012	195.604	189.253	42.315
3.000	306.209	306.352	279.399	293.389	312.798	314.159	315.210	277.776	284.914	301.936	222.772	230.005	113.145	112.715	139.883	125.320	106.365	104.908	104.073	140.504	134.344	116.964	195.580	189.396	41.322
4.000	306.591	307.021	279.590	293.700	312.631	314.016	315.257	277.633	284.866	301.697	222.772	230.101	113.169	112.906	139.907	125.344	106.412	105.028	104.097	140.408	134.177	116.893	195.604	189.396	39.382
5.000	306.352	306.520	279.757	293.652	312.536	314.016	315.377	277.895	284.819	301.864	222.843	229.934	113.025	112.787	139.740	125.272	106.317	105.028	104.049	140.313	134.129	116.988	195.580	189.444	39.202
6.000	306.400	306.305	279.328	293.747	312.607	314.589	315.496	277.824	284.938	302.222	222.557	230.005	113.121	112.930	139.716	125.153	106.317	104.908	103.953	140.360	134.201	116.845	195.556	189.301	39.743
7.000	306.376	306.233	279.495	293.938	312.846	314.422	315.448	277.776	284.508	302.127	222.819	230.053	113.049	112.763	139.644	125.320	106.341	104.932	103.906	140.408	134.153	117.012	195.532	189.301	41.954
8.000	306.209	306.639	279.829	293.723	312.751	313.896	315.281	277.776	284.628	302.103	222.867	230.435	112.978	112.858	139.596	125.105	106.388	104.884	103.882	140.360	134.249	116.941	195.484	189.205	41.954
9.000	306.543	306.520	279.543	293.222	312.416	314.111	315.257	277.776	285.033	302.437	222.628	230.268	112.930	112.834	139.644	125.177	106.269	104.980	103.977	140.337	134.273	116.821	195.532	189.229	40.104
10.000	305.016	305.445	279.543	293.437	312.655	314.183	315.424	277.657	285.105	301.387	222.270	249.868	114.840	113.694	139.764	125.416	106.436	104.956	104.025	140.265	134.058	117.704	195.771	168.650	39.202
11.000	276.081	286.538	277.107	291.837	311.939	313.586	315.353	277.060	285.535	289.426	220.981	286.060	141.459	131.288	141.650	126.371	106.675	105.410	104.073	140.862	133.246	128.543	197.728	131.169	43.578
12.000	233.109	240.820	270.781	289.331	311.294	313.061	314.828	275.460	286.012	259.417	219.310	301.220	185.481	176.576	147.904	129.092	107.463	105.983	104.311	142.390	132.912	158.719	199.137	115.938	38.119
13.000	243.494	256.290	262.569	284.222	310.411	312.034	314.589	272.237	285.941	237.549	218.092	309.456	177.197	163.876	156.188	134.320	108.585	106.938	104.479	145.422	132.697	181.829	200.163	108.251	30.764
14.000	266.985	280.450	253.568	276.367	308.883	310.841	313.992	268.919	286.370	220.527	217.161	315.042	153.371	139.191	166.215	142.652	109.707	107.916	104.908	148.931	132.936	199.256	200.951	103.906	35.863
15.000	284.771	294.845	245.141	266.770	307.284	309.599	313.586	264.717	285.224	232.846	216.779	318.218	134.440	123.410	175.454	152.130	111.402	109.158	105.601	153.061	133.604	186.341	201.548	100.563	48.541
16.000	298.832	305.183	238.743	257.531	305.565	308.310	313.347	260.348	284.604	245.332	216.326	320.175	120.927	112.954	183.046	160.581	112.858	110.423	105.911	157.120	134.344	172.828	202.407	98.630	51.745
17.000	308.644	312.583	236.403	249.462	303.535	306.185	312.297	254.905	283.840	257.746	215.824	322.085	110.924	106.484	186.030	168.507	115.007	112.261	106.723	162.276	135.037	160.414	202.575	97.054	41.413
18.000	315.162	317.549	237.525	242.992	301.745	304.490	311.485	249.749	282.336	269.516	215.586	323.732	103.977	102.163	182.664	175.693	117.132	114.386	107.487	167.815	136.087	149.743	203.004	96.242	29.952
19.000	320.223	321.393	240.247	236.356	299.190	301.673	310.387	244.138	282.288	278.922	215.084	324.735	99.059	98.391	177.913	182.425	119.304	116.559	108.322	173.544	137.114	139.549	203.482	95.980	31.396
20.000	323.971	323.398	243.374	229.838	296.827	298.808	309.528	238.242	281.094	287.349	215.275	325.427	94.786	95.741	171.969	189.110	121.930	119.423	109.468	179.966	137.925	131.599	203.649	94.308	44.842
21.000	326.955	325.642	247.552	223.249	294.082	295.872	308.215	231.963	279.901	292.912	214.631	326.788	92.470	93.377	166.860	195.413	124.676	122.742	110.829	186.150	139.119	125.416	203.864	93.091	53.730
22.000	328.412	326.669	250.632	217.663	291.432	292.100	306.400	225.994	278.540	297.949	214.822	327.098	90.727	92.279	162.300	201.166	127.421	126.084	112.333	192.046	139.931	120.426	203.983	92.733	46.556
23.000	329.939	328.292	253.831	219.549	287.946	288.185	305.230	220.695	277.633	301.387	214.965	327.791	89.391	90.298	158.504	198.803	130.692	130.023	114.100	197.776	141.363	116.773	204.007	92.900	33.156
24.000	331.945	328.961	256.529	225.589	284.914	284.246	303.130	218.188	276.558	304.992	214.846	327.671	88.674	89.701	155.353	193.550	134.153	134.464	115.938	200.951	142.485	113.503	204.246	92.566	28.734
25.000	331.205	329.462	259.059	229.743	280.927	280.235	300.742	220.122	274.887	307.236	214.893	328.173	87.648	89.605	152.416	189.134	137.925	138.641	118.206	198.516	143.703	111.163	204.198	92.804	38.390
26.000	331.157	330.154	260.324	229.480	279.614	278.110	299.763	219.763	275.365	306.711	214.941	327.504	87.648	89.319	151.080	189.396	139.453	140.313	119.495	198.683	144.109	111.712	204.246	92.637	51.835
27.000	331.443	330.083	260.515	228.621	280.712	278.444	299.549	219.763	275.198	306.639	215.037	329.104	88.078	88.388	150.459	190.638	139.119	140.337	119.567	199.185	143.989	111.975	204.484	92.375	51.249
28.000	331.825	330.751	261.065	227.427	280.450	278.635	299.119	219.596	275.580	306.472	214.798	327.910	86.979	88.818	150.435	191.402	138.737	140.026	119.853	199.376	143.894	112.572	204.341	92.995	37.713
29.000	331.754	331.038	261.900	226.376	280.712	278.540	299.334	219.334	275.508	306.018	214.917	328.244	87.481	88.794	150.172	192.643	138.164	139.859	120.044	199.471	143.655	112.524	204.246	93.210	28.418
30.000	332.947	331.085	262.497	229.098	280.163	277.824	298.116	220.551	274.887	307.642	214.941	328.603	86.693	88.841	149.576	189.635	139.071	140.981	120.832	197.848	143.989	111.044	204.150	93.019	35.051
31.000	331.802	330.847	264.025	233.610	276.821	274.123	296.493	222.151	274.028	307.713	215.060	328.364	87.242	88.364	148.191	185.004	142.557	144.538	122.718	196.415	144.849	110.829	203.959	92.972	49.218
32.000	331.181	330.536	264.908	235.854	274.123	272.190	295.323	220.695	275.030	305.207	215.156	327.480	88.794	88.412	146.615	183.356	145.016	146.424	123.935	197.418	143.989	113.574	204.126	93.521	52.963
33.000	328.889	329.939	265.338	234.589	274.768	272.715	295.395	220.671	276.821	298.999	215.299	325.881	90.799	89.749	145.971	183.715	144.658	145.636	123.697	198.015	142.390	120.068	203.553	94.714	41.728
34.000	326.764	328.913	265.696	232.584	275.914	274.434	296.660	226.520	277.943	290.715	215.848	324.258	93.425	90.489	145.827	186.269	142.604	143.846	122.599	191.569	140.838	128.185	202.909	95.216	30.088
35.000	323.494	327.433	265.171	228.764	278.588	277.155	297.734	233.228	279.543	280.187	216.373	322.109	96.027	92.112	146.496	190.017	140.074	141.554	121.548	184.455	139.000	138.641	202.264	97.126	31.441
36.000	319.531	326.573	264.741	223.273	281.524	279.566	298.808	239.316	281.023	267.272	217.042	319.698	99.370	93.401	147.140	195.222	137.185	138.785	120.211	177.937	137.758	151.008	201.381	99.895	43.849
37.000	315.233	324.019	263.070	217.854	284.389	282.789	300.336	244.735	282.073	253.521	217.543	316.928	104.049	95.359	148.979	200.736	134.655	136.278	118.755	172.542	136.923	164.640	200.712	101.805	52.738
38.000	310.124	321.679	262.067	220.432	287.087	285.248	301.769	249.008	283.267	240.008	218.522	314.374	109.969	98.009	150.292	198.946	131.933	133.556	117.370	167.743	136.015	179.561	200.307	105.243	46.015
39.000	302.509	319.340	260.348	226.663	289.402	287.683	303.201	252.398	283.577	225.589	218.761	311.151	116.964	101.065	152.918	191.712	129.355	131.002	115.986	164.019	135.586	194.028	199.734	107.892	34.690
40.000	293.103	314.851	257.961	234.255	291.742	290.310	304.610	255.669	283.840	221.172	219.262	308.238	126.490	104.526	155.114	184.550	126.729	128.328	114.649	160.653	135.060	197.967	199.137	110.304	30.539
41.000	281.476	310.554	255.812	240.987	293.962	292.721	305.827	258.343	284.007	232.082	219.644	305.183	138.260	108.418	158.051	177.245	124.676	126.132	113.360	157.836	134.607	187.439	199.113	113.049	38.344
42.000	267.176	305.708	252.757	247.695	296.015	294.893	306.639	260.396	284.150	240.963	219.907	302.437	151.271	113.360	161.488	171.062	122.885	124.174	112.428	156.045	134.488	178.630	198.683	116.009	49.128
43.000	254.499	301.005	249.534	253.855	297.877	296.946	307.880	262.473	284.413	248.746	219.620	299.978	165.284	118.755	165.332	165.260	120.999	121.882	111.235	154.088	134.559	170.680	198.516	118.803	48.722
44.000	241.488	293.914	246.191	258.534	299.071	299.262	308.955	264.120	284.580	255.025	219.787	296.588	178.462	125.129	169.176	160.366	119.471	119.781	110.304	152.775	134.440	164.282	198.516	121.238	39.788
45.000	231.151	285.583	243.064	262.664	300.933	300.432	309.265	265.266	284.341	259.871	220.504	294.201	188.513	133.461	172.685	156.141	118.230	117.895	109.635	151.366	134.320	158.910	198.301	123.458	31.892
46.000	223.416	276.105	240.128	266.197	301.626	302.031	310.172	266.197	284.293	264.120	220.504	292.434	196.296	142.772	176.839	152.297	116.917	116.511	108.776	150.363	134.368	154.732	197.967	125.917	35.096
47.000	220.599	264.860	236.881	269.205	302.795	303.631	310.865	267.367	285.105	267.630	220.122	289.832	199.423	154.111	180.587	149.528	116.105	115.126	108.227	149.480	134.368	151.199	197.848	127.875	44.842
48.000	225.541	252.422	234.828	272.166	303.846	304.729	311.247	268.131	284.628	270.805	220.671	288.185	194.243	166.311	183.738	146.639	114.887	113.980	107.701	148.716	134.392	148.477	197.609	130.238	48.857
49.000	232.655	240.605	232.870	274.123	304.634	305.899	311.652	269.158	284.819	273.503	220.838	286.251	187.391	179.083	186.388	144.228	114.100	112.739	107.176	147.833	134.320	145.445	197.490	131.432	43.217
50.000	239.602	227.379	232.440	276.535	305.111	306.878	312.225	269.754	284.723	276.367	221.196	284.079	179.513	191.784	188.346	141.936	113.383	111.736	107.009	147.308	134.177	142.700	197.299	134.058	35.502
51.000	246.215	222.557	233.037	278.277	305.899	308.119	312.631	270.399	284.890	278.230	221.053	281.405	172.781	196.917	188.322	139.931	112.572	110.542	106.603	146.711	134.106	140.504	197.299	135.920	33.517
52.000	252.136	230.888	234.470	279.996	306.520	308.692	312.870	270.972	284.795	279.972	221.411	279.304	166.884	188.298	186.579	138.331	111.975	109.826	106.293	146.233	134.297	138.785	197.131	137.949	40.600
53.000	257.531	240.390	236.570	281.285	307.379	309.456	313.061	271.664	284.866	281.548	221.554	278.015	162.061	179.417	184.264	137.185	111.593	109.182	106.102	145.827	134.392	137.615	197.131	139.525	47.143
54.000	261.805	249.008	239.268	282.360	307.785	310.220	313.371	272.022	284.675	282.861	221.387	275.938	157.645	170.632	181.447	136.206	111.187	108.680	105.744	145.302	134.201	136.254	196.988	141.506	45.248
55.000	265.959	256.457	241.202	283.959	308.119	310.459	313.276	272.572	284.842	283.768	221.482	274.314	153.849	162.945	179.107	135.251	110.805	108.179	105.744	145.063	134.249	135.251	197.060	143.058	38.796
56.000	268.370	263.189	243.709	283.888	308.453	310.888	313.634	272.452	284.270	284.437	221.578	272.548	150.745	156.165	176.266	134.511	110.160	107.916	105.577	144.753	134.153	134.368	196.964	144.586	34.013
57.000	271.617	268.274	245.666	285.129	308.668	311.175	313.753	273.097	284.604	285.702	221.482	271.688	147.952	150.817	174.046	133.771	110.160	107.606	105.338	144.514	134.273	133.533	196.821	146.066	37.893
58.000	274.004	272.882	247.719	285.535	308.859	311.533	313.968	273.240	285.057	286.108	221.649	269.850	145.565	146.448	171.849	133.127	109.707	107.487	105.505	144.371	134.249	132.816	196.821	147.451	44.797
59.000	276.367	277.012	249.653	285.941	309.074	311.987	314.183	273.717	284.962	286.991	221.602	268.394	143.631	142.318	170.011	132.673	109.540	107.176	105.052	143.965	134.344	132.363	196.869	148.812	46.105
60.000	278.062	280.521	251.539	286.800	309.599	312.130	314.302	273.885	284.795	287.421	221.435	266.985	141.530	139.000	168.316	132.148	109.301	106.890	105.123	143.846	134.320	131.670	196.797	150.674	41.458
61.000	279.901	283.076	252.828	286.776	309.552	312.178	314.446	274.052	284.628	287.922	221.769	265.768	139.907	136.254	166.478	131.814	109.038	106.818	105.171	143.583	134.392	131.241	196.773	151.844	35.773
62.000	281.166	285.201	254.762	287.588	309.957	312.607	314.087	274.290	284.461	288.233	221.602	263.929	138.116	134.297	165.022	131.527	108.991	106.675	105.075	143.488	134.225	130.620	196.797	153.324	36.314
63.000	282.551	287.278	255.693	287.898	309.886	312.703	314.278	274.099	285.010	288.901	221.697	262.115	137.066	132.267	163.732	131.002	108.895	106.579	105.004	143.464	134.249	130.262	196.702	154.899	41.774
64.000	283.911	288.662	257.125	288.065	310.244	312.583	314.422	274.338	284.819	289.187	221.888	260.897	136.015	130.787	162.515	130.763	108.800	106.508	104.789	143.082	134.320	129.975	196.630	156.523	45.293
65.000	285.057	290.142	257.651	288.447	310.697	312.512	314.493	274.816	284.866	289.474	221.602	259.584	134.822	129.474	161.130	130.357	108.633	106.365	104.741	143.010	134.320	129.665	196.702	158.170	42.721
66.000	285.893	291.264	259.346	288.256	310.315	312.464	314.708	275.198	285.010	289.951	221.697	257.842	133.771	128.137	160.175	130.166	108.513	106.388	104.837	142.986	134.368	129.235	196.535	159.889	38.660
67.000	287.063	292.219	260.253	288.925	310.578	312.727	314.565	275.102	284.771	290.429	221.960	256.147	132.625	126.943	159.411	130.023	108.370	106.317	104.550	142.891	134.344	128.830	196.582	161.584	36.043
68.000	287.922	293.628	261.160	288.853	310.459	312.918	314.971	275.174	284.986	290.524	222.031	254.786	131.957	126.108	158.480	129.761	108.274	106.174	104.693	142.748	134.344	128.591	196.439	162.992	39.247
69.000	288.829	294.869	261.733	289.187	310.650	312.703	314.493	275.150	284.699	291.002	222.151	252.804	131.145	125.272	157.740	129.713	108.370	106.221	104.622	142.676	134.416	128.304	196.558	164.711	44.210
70.000	289.522	295.395	262.425	289.522	310.865	312.822	314.947	275.221	284.413	290.811	222.127	251.133	130.023	124.413	156.952	129.307	108.155	106.078	104.670	142.604	134.320	128.018	196.535	166.502	43.804
71.000	290.405	295.944	263.285	289.402	310.554	313.085	315.090	275.341	284.532	291.432	221.936	249.486	129.498	123.601	156.260	129.235	108.083	105.983	104.502	142.390	134.297	127.564	196.463	168.173	40.285
72.000	290.572	297.042	263.667	289.737	310.841	312.870	314.493	275.341	284.795	292.076	222.031	247.648	128.495	122.718	155.401	128.949	107.964	105.983	104.693	142.485	134.344	127.254	196.367	169.820	37.352
73.000	292.148	297.424	264.669	290.190	311.270	313.204	314.541	275.341	284.461	292.267	221.960	245.308	127.302	121.978	154.613	128.830	107.773	105.792	104.526	142.366	134.320	126.753	196.248	172.327	38.480
74.000	293.150	298.594	265.266	290.500	311.318	313.419	314.875	275.436	284.890	293.007	222.294	242.777	126.418	121.262	153.897	128.686	107.701	105.625	104.455	142.199	134.249	126.251	196.176	175.120	42.360
75.000	293.604	299.047	266.603	290.262	311.294	313.156	314.804	275.794	284.771	293.604	222.342	240.868	126.084	120.617	152.822	128.424	107.678	105.648	104.240	142.055	134.416	126.036	196.057	176.863	43.939
76.000	294.368	299.811	267.105	290.739	311.318	313.419	314.732	275.699	284.651	293.556	222.342	239.053	125.201	119.972	152.154	128.185	107.701	105.625	104.431	142.055	134.344	125.583	196.105	178.916	41.458
77.000	295.108	299.907	267.749	290.572	311.843	313.586	314.947	275.580	284.628	293.867	222.294	237.167	124.532	119.543	151.438	128.066	107.487	105.529	104.359	142.055	134.440	125.225	196.200	181.184	39.337
78.000	295.299	301.053	268.489	291.050	311.390	313.228	314.613	275.699	284.628	294.296	222.581	235.090	123.840	118.970	150.936	127.946	107.463	105.601	104.455	142.008	134.344	124.652	196.105	182.879	38.751
79.000	296.540	301.005	269.396	291.050	311.533	313.538	315.066	276.200	284.580	294.631	222.437	233.037	123.195	118.468	150.101	127.851	107.511	105.505	104.264	141.841	134.416	124.389	195.986	185.028	40.420
80.000	297.281	301.960	270.041	291.336	311.509	313.682	315.162	275.985	284.747	295.084	222.581	230.769	122.575	117.776	149.456	127.779	107.343	105.553	104.407	141.841	134.392	124.031	195.938	187.224	42.405
81.000	297.543	302.127	270.996	291.288	311.509	313.419	314.875	275.914	284.556	295.275	222.366	229.528	122.240	117.537	148.692	127.421	107.224	105.457	104.216	141.769	134.344	123.697	195.914	189.205	41.683
82.000	297.233	302.103	271.187	291.408	311.819	313.300	314.851	276.200	284.842	295.418	222.748	227.928	122.026	117.203	148.143	127.373	107.152	105.434	104.359	141.721	134.488	123.458	195.771	190.232	39.788
83.000	297.782	302.055	271.903	291.670	311.605	313.586	314.947	276.248	285.081	295.681	222.222	227.880	121.882	117.322	147.618	127.349	107.105	105.434	104.407	141.817	134.535	123.434	195.842	190.829	39.157
84.000	297.782	302.461	272.428	291.766	311.867	313.347	314.899	276.367	284.604	295.347	222.413	227.809	121.572	117.299	147.331	127.063	107.200	105.410	104.359	141.650	134.488	123.506	196.105	190.972	39.518
85.000	297.567	301.960	272.309	291.432	311.605	313.753	315.042	276.009	284.747	295.872	222.270	227.498	121.882	117.370	146.997	127.230	107.200	105.338	104.216	141.602	134.440	123.577	195.914	191.282	41.458
86.000	297.782	302.413	272.452	291.646	311.724	313.538	315.162	276.296	284.699	295.729	222.342	226.973	121.572	117.036	146.878	127.206	107.320	105.434	104.383	141.626	134.392	123.482	195.986	191.736	41.774
87.000	298.355	302.485	272.906	291.790	311.676	313.682	314.875	276.415	284.842	295.562	222.055	226.329	121.357	117.203	146.758	127.111	107.129	105.314	104.359	141.530	134.464	123.362	195.986	192.381	40.420
88.000	298.426	302.175	272.619	291.790	311.939	313.920	314.851	276.296	284.580	295.586	222.246	226.114	121.118	117.084	146.830	126.991	107.129	105.338	104.216	141.626	134.559	123.219	195.842	192.977	39.382
89.000	298.355	302.580	273.216	291.575	311.676	313.586	315.138	276.439	284.962	296.111	222.390	225.183	120.880	116.845	146.544	127.063	107.129	105.386	104.359	141.482	134.392	123.148	195.818	193.837	39.292
