-----------------------------------------------------
BloodHound 307 VOC Analyser V2017.1
RoboScientific Ltd 
Espace North
Wisbech Road
Littleport
Cambridgeshire, UK
CB6 1RA 
-----------------------------------------------------
Date = 24/03/2022
Time = 12:23:19
Data is protected by RoboScientific Limited
-----------------------------------------------------
Name of the experiment = "50a_Day 33"
-----------------------------------------------------
Repeat No. = 3/4
-----------------------------------------------------
Experimental Time (in sec) and Flow Profile :
-----------------------------------------------------
Baseline = 2.00
Absorb = 4.00
Pause = 1.00
Desorb = 5.00
Flush = 20.00
Wait = 5.00
Higher Flow (V) = 4.00
Medium Flow (V) = 3.00
Low Flow (V) = 1.00
-----------------------------------------------------
Total Profile Time = 37 in sec
-----------------------------------------------------
Acquired data point per second = 4
--------------------------------------------------
Total data point stored  = 128
-----------------------------------------------------
Acquired sensor responses from 24 sensors
-----------------------------------------------------

Data Points	 Sen-1	 Sen-2	 Sen-3	 Sen-4	 Sen-5	 Sen-6	 Sen-7	 Sen-8	 Sen-9	 Sen-10	 Sen-11	 Sen-12	 Sen-13	 Sen-14	 Sen-15	 Sen-16	 Sen-17	 Sen-18	 Sen-19	 Sen-20	 Sen-21	 Sen-22	 Sen-23	 Sen-24	Humidity (%r.h.)
0.000	307.451	307.212	277.824	293.532	312.679	314.493	315.400	278.015	284.842	304.299	223.512	234.851	112.142	112.142	141.554	125.153	106.341	104.741	104.025	139.955	134.177	115.031	194.863	184.598	39.743
1.000	307.403	307.045	277.442	293.532	312.440	314.302	315.400	278.134	284.795	304.156	223.655	234.207	112.118	112.142	141.506	125.153	106.532	104.622	103.929	139.716	134.153	114.911	194.935	184.741	42.405
2.000	307.260	307.164	277.537	293.771	312.416	314.111	315.162	278.325	285.224	304.037	223.368	234.302	111.975	112.237	141.697	125.105	106.365	104.765	104.025	139.931	134.273	115.102	194.935	185.004	42.631
3.000	307.379	307.618	277.776	294.082	312.536	314.374	315.281	277.967	285.057	303.822	223.655	234.183	112.166	112.214	141.530	125.105	106.245	104.693	104.049	139.811	134.106	114.935	194.911	185.386	40.510
4.000	307.188	306.949	277.466	293.628	312.392	314.183	315.472	278.158	285.057	304.108	223.416	233.706	112.261	112.428	141.721	125.129	106.436	104.741	104.025	139.859	134.225	115.078	194.911	185.433	39.202
5.000	307.069	307.188	278.110	293.556	312.560	314.374	315.377	278.086	284.651	303.870	223.344	233.467	112.166	112.428	141.626	125.201	106.365	104.550	103.810	139.787	134.273	115.055	194.911	185.505	39.247
6.000	307.451	306.997	277.752	293.580	312.392	314.302	315.210	278.301	285.033	304.061	223.368	233.467	112.190	112.309	141.721	125.177	106.341	104.670	103.977	139.787	134.249	115.031	194.959	185.577	41.142
7.000	307.976	306.949	277.298	293.532	312.249	314.278	315.568	278.301	284.938	303.965	223.631	233.586	112.190	112.405	141.841	124.986	106.412	104.789	103.977	139.835	134.129	115.007	194.911	185.624	42.856
8.000	307.140	307.284	277.871	293.485	312.583	314.111	314.995	278.134	284.986	304.037	223.726	233.706	112.094	112.381	141.769	125.177	106.412	104.789	103.882	139.787	134.153	115.007	194.911	185.672	41.638
9.000	307.642	306.973	277.394	293.795	312.345	314.231	315.400	278.253	284.962	303.965	223.703	233.538	111.927	112.285	141.864	125.248	106.365	104.598	103.786	139.811	134.034	114.983	194.863	185.601	39.472
10.000	306.305	305.947	276.988	293.580	312.297	314.374	315.353	278.110	285.105	303.368	223.177	243.804	113.121	113.097	142.055	125.320	106.436	104.717	103.858	139.811	133.938	115.436	195.078	171.109	38.931
11.000	282.575	288.519	274.768	292.028	312.178	313.920	315.329	277.466	285.917	294.845	221.220	284.890	134.798	128.973	144.252	126.227	106.699	105.052	104.073	140.217	133.270	123.339	196.749	132.243	42.180
12.000	242.324	244.878	267.916	288.805	311.318	313.228	315.114	276.272	286.323	270.089	219.978	301.053	176.099	172.709	150.674	129.188	107.630	105.648	104.168	141.769	132.649	148.501	198.397	116.487	34.645
13.000	235.401	252.637	259.322	284.079	310.148	312.536	314.780	273.335	286.490	250.130	218.761	310.244	185.386	167.290	159.674	134.655	108.680	106.794	104.574	144.729	132.363	170.035	199.399	108.394	31.577
14.000	260.706	277.752	249.701	275.174	308.668	311.151	314.207	269.587	286.036	231.772	218.164	315.902	159.960	141.745	170.417	143.488	109.659	107.463	105.075	148.024	132.816	188.107	200.163	102.640	40.330
15.000	280.163	293.270	240.056	265.219	307.069	309.910	313.658	265.982	285.415	221.220	217.305	318.552	138.952	124.890	180.444	153.443	111.378	108.633	105.290	152.058	133.294	197.155	200.736	99.513	51.203
16.000	294.750	304.443	234.851	255.765	305.589	308.979	313.371	261.375	284.484	234.971	217.090	321.417	123.267	114.195	187.487	162.157	112.954	109.898	105.911	155.759	133.938	182.736	201.667	97.102	49.850
17.000	305.875	311.509	234.207	248.054	303.583	306.997	312.225	256.433	284.270	248.817	216.373	323.756	112.619	106.723	186.842	170.417	115.078	111.569	106.579	160.724	134.774	168.865	201.978	95.884	37.758
18.000	313.896	316.881	237.191	241.011	301.363	305.135	311.700	251.658	283.195	261.828	216.302	325.093	105.338	102.067	180.754	177.913	117.108	113.550	107.511	166.359	135.801	156.857	202.551	94.810	28.599
19.000	319.244	320.915	241.727	234.446	299.214	303.034	310.888	246.382	282.455	273.598	216.039	325.642	99.656	98.510	174.237	184.502	119.710	115.651	108.227	171.897	136.564	145.422	202.598	93.234	34.780
20.000	323.613	323.541	246.072	228.095	296.373	300.408	309.766	240.175	281.214	282.909	215.562	325.690	95.956	95.263	168.077	191.068	122.336	118.373	109.397	177.961	137.687	135.562	203.076	93.377	48.587
21.000	326.454	325.021	250.083	221.339	293.532	296.899	308.549	234.040	280.665	290.310	215.586	326.860	93.401	93.330	162.419	197.203	124.914	121.142	110.662	183.524	138.594	128.137	203.243	92.232	53.324
22.000	327.743	327.242	253.807	217.042	290.596	293.914	306.758	227.928	279.375	295.824	215.538	328.507	91.062	91.993	157.502	201.811	128.280	124.628	112.142	189.659	139.644	122.360	203.219	92.064	43.172
23.000	329.701	328.340	257.675	221.196	287.469	290.142	304.992	222.461	277.609	300.026	215.275	328.937	89.605	91.133	153.562	197.322	131.503	128.471	113.837	195.818	140.838	117.824	203.649	92.351	30.674
24.000	330.560	328.626	260.706	227.284	283.529	285.821	303.082	218.785	276.558	303.846	215.395	329.534	88.245	90.178	150.268	191.450	135.180	132.649	115.962	200.259	141.864	114.816	203.482	91.850	29.727
25.000	332.136	330.107	263.070	231.199	280.545	282.097	301.053	219.095	275.627	306.090	215.418	328.555	88.292	88.674	147.785	187.582	139.095	136.755	118.325	199.829	143.368	112.858	203.577	91.778	41.728
26.000	331.205	330.321	264.144	230.841	278.612	280.092	299.931	219.119	275.269	305.660	215.538	328.698	87.982	88.961	146.830	187.892	140.575	138.427	119.471	199.758	143.607	112.500	203.434	90.990	53.144
27.000	331.754	329.892	264.693	230.411	279.041	280.259	299.334	218.594	275.412	305.875	215.705	328.984	87.409	89.104	146.185	188.895	140.217	138.594	119.567	199.877	143.345	113.073	203.673	90.560	49.579
28.000	332.064	330.465	264.956	228.955	279.280	280.498	299.381	218.856	275.723	305.684	215.514	329.629	87.767	88.364	146.424	190.041	139.907	138.355	119.686	200.163	143.464	113.527	203.601	90.895	35.953
29.000	332.112	330.894	265.123	227.880	279.399	280.569	298.976	219.358	275.771	305.063	215.347	329.510	87.743	88.913	146.472	191.426	139.501	138.140	120.140	200.092	143.154	113.550	203.625	91.491	28.102
30.000	332.422	330.799	266.030	231.151	278.635	279.137	298.116	219.787	275.126	306.878	215.681	329.056	86.550	87.576	145.851	187.630	140.838	139.668	120.951	198.588	143.464	111.664	203.553	90.918	35.818
31.000	331.873	331.038	267.176	235.878	275.007	275.699	296.254	220.790	274.625	307.021	215.586	329.175	87.314	88.698	144.299	182.783	144.037	143.058	122.813	197.537	144.395	111.235	203.577	90.942	49.669
32.000	331.229	331.061	268.346	237.788	272.261	273.980	295.108	220.289	275.269	304.490	215.753	328.459	88.388	88.340	142.724	181.208	146.949	144.658	123.864	198.349	143.750	114.195	203.171	91.921	53.144
33.000	329.271	330.250	269.134	237.525	272.643	275.102	295.395	221.387	276.821	298.570	215.968	326.621	90.799	89.367	141.697	181.638	146.544	144.252	123.744	197.060	141.817	120.402	202.694	93.139	42.089
34.000	325.499	329.152	269.110	234.493	274.410	275.962	296.015	227.618	278.755	289.689	216.254	326.072	94.165	89.582	142.151	184.097	144.467	142.509	123.052	190.280	140.169	129.211	202.169	94.834	30.088
35.000	322.897	327.504	268.537	230.698	276.988	278.444	297.615	234.016	280.092	278.946	217.114	323.040	95.860	91.611	142.819	187.749	141.960	140.098	121.572	183.165	138.618	139.405	201.142	96.553	30.539
36.000	319.292	326.215	268.728	225.350	279.734	281.166	298.832	240.151	281.476	266.460	217.424	320.318	99.823	93.139	143.989	193.145	139.095	137.591	120.331	176.624	137.496	152.440	200.569	99.226	42.450
37.000	315.066	323.947	266.914	219.668	282.837	283.720	300.074	245.523	282.479	252.112	218.594	318.170	104.646	95.478	145.040	198.970	136.159	135.108	118.922	171.730	136.564	167.003	200.044	101.494	52.377
38.000	309.957	320.939	265.386	218.498	285.583	286.490	301.602	250.202	283.052	237.406	219.310	315.042	110.781	98.128	147.308	200.498	133.174	132.339	117.322	166.693	135.848	181.972	199.232	103.810	48.090
39.000	301.721	318.814	262.807	225.135	288.447	288.925	302.795	253.401	283.649	222.055	219.549	311.963	118.970	100.826	149.289	193.025	130.357	129.737	115.962	162.754	135.156	197.490	198.970	107.654	36.630
40.000	291.241	314.995	261.088	232.894	290.596	291.217	304.275	256.409	283.911	225.183	219.620	308.668	128.615	104.622	152.178	185.553	127.803	127.325	114.601	159.913	134.893	193.359	198.444	111.163	30.043
41.000	277.991	310.387	258.056	240.390	292.936	293.556	305.565	259.155	284.365	236.547	220.551	305.230	141.005	108.967	155.162	177.818	125.344	124.914	113.550	157.167	134.607	182.497	198.253	113.407	35.863
42.000	263.189	305.756	254.738	247.075	295.013	295.848	306.758	261.375	284.842	245.666	220.695	302.007	155.568	113.455	158.886	171.611	123.721	122.885	112.046	155.090	134.368	173.759	197.943	116.344	47.188
43.000	249.080	300.002	251.205	252.948	297.090	297.877	307.952	262.927	284.461	252.995	221.100	299.310	170.226	119.209	162.563	165.499	121.691	120.951	111.235	153.419	134.177	166.502	197.585	119.185	50.211
44.000	236.451	293.723	247.863	258.104	298.570	300.002	308.788	264.455	284.699	258.988	221.196	297.137	183.356	126.060	167.266	160.486	120.259	118.874	110.375	151.915	134.153	160.271	197.299	122.049	41.999
45.000	226.018	285.368	244.353	262.449	300.169	301.554	309.647	265.696	284.461	263.333	221.339	294.344	194.171	134.440	171.491	156.045	118.636	117.179	109.468	150.841	134.225	155.544	197.275	124.437	33.336
46.000	220.122	274.768	240.772	265.911	301.172	303.058	310.411	266.866	284.771	267.821	220.957	291.718	199.543	144.228	176.075	152.751	117.513	115.771	108.704	149.790	134.129	151.151	197.131	126.633	32.975
47.000	225.589	262.688	237.358	269.229	302.461	304.586	310.936	267.964	284.699	270.924	221.291	289.187	194.553	156.117	179.680	149.456	116.487	114.410	108.155	148.907	133.986	147.761	196.964	128.901	41.683
48.000	232.488	249.199	234.541	271.784	303.082	305.636	311.628	268.823	284.986	274.099	221.506	287.134	187.319	169.653	183.524	146.758	115.413	113.192	107.725	148.095	134.106	145.016	196.940	131.336	48.451
49.000	240.175	237.215	232.225	274.219	304.490	306.973	311.843	269.898	285.057	276.654	221.530	285.392	179.608	182.258	186.723	144.323	114.744	112.023	107.200	147.331	134.082	142.151	196.606	132.625	45.699
50.000	247.194	224.705	231.294	276.845	304.968	308.238	312.464	270.399	284.556	279.280	221.888	282.479	172.303	194.625	189.444	141.721	113.646	110.733	106.770	146.639	134.034	139.501	196.391	135.992	38.751
51.000	252.876	226.424	231.175	278.373	305.923	308.955	312.774	270.972	284.866	281.572	222.103	279.853	165.977	192.763	189.922	139.620	112.882	109.778	106.556	146.042	134.082	137.496	196.439	138.236	33.111
52.000	258.033	237.430	233.180	280.712	306.758	309.719	313.061	271.569	284.675	283.124	221.817	277.967	161.417	181.781	187.916	137.997	112.214	109.158	106.436	145.613	134.225	135.896	196.415	140.169	37.081
53.000	262.067	247.576	234.971	281.978	307.307	310.602	313.133	272.022	284.651	284.198	222.342	275.651	157.836	171.849	185.672	136.923	111.760	108.585	106.102	145.398	134.201	134.607	196.367	142.175	44.751
54.000	265.624	256.552	237.692	282.813	307.642	310.984	313.658	272.667	285.010	285.606	222.246	274.410	153.849	162.825	182.831	135.705	111.211	107.964	105.839	144.753	134.106	133.700	196.129	144.037	46.917
55.000	268.680	263.619	240.032	283.983	308.310	311.294	313.538	273.073	284.986	286.561	222.103	272.428	150.769	155.830	180.396	134.869	110.805	107.558	105.648	144.323	134.153	132.721	196.153	145.732	42.315
56.000	271.402	269.038	241.632	284.604	308.358	311.461	313.825	273.479	285.010	287.063	222.127	270.399	148.095	149.838	177.842	134.225	110.471	107.415	105.362	144.204	134.249	131.742	196.057	147.475	35.818
57.000	273.503	274.076	244.186	285.439	308.668	311.485	313.777	273.574	285.129	288.018	222.557	268.656	146.090	144.992	175.741	133.437	110.208	106.985	105.362	143.989	134.249	131.169	195.866	149.003	35.231
58.000	275.556	277.824	245.929	285.654	308.883	312.058	313.920	273.813	285.248	288.638	222.628	267.367	143.798	141.411	173.640	132.840	109.826	106.890	105.219	143.750	134.201	130.572	195.842	150.459	41.052
59.000	277.585	281.238	247.672	286.442	309.408	312.440	314.087	274.147	284.771	289.092	222.509	265.791	141.841	138.307	172.064	132.267	109.564	106.699	105.052	143.583	134.153	130.023	195.986	151.963	46.015
60.000	279.423	283.935	249.367	286.872	309.170	312.154	314.111	274.099	284.699	289.450	222.724	264.192	140.265	135.848	170.178	131.933	109.325	106.508	104.932	143.321	134.392	129.761	195.723	153.753	43.984
61.000	280.903	285.726	250.703	287.492	309.790	312.679	314.589	274.625	284.819	289.951	222.485	262.521	138.785	133.724	168.507	131.599	109.301	106.460	105.004	143.201	134.201	129.116	195.795	155.257	39.066
62.000	281.691	287.301	252.398	287.803	309.695	312.655	314.040	274.649	284.986	290.572	222.366	261.136	137.591	131.861	167.170	131.145	109.062	106.269	104.956	143.201	134.177	128.734	195.699	157.072	35.412
63.000	283.124	289.235	253.425	287.898	310.172	312.703	314.231	274.625	284.556	290.644	222.867	259.083	136.206	130.429	165.905	130.668	108.919	106.174	104.813	142.795	134.249	128.304	195.604	158.719	38.480
64.000	284.580	290.596	254.738	288.065	310.172	312.727	314.493	275.126	284.675	290.978	222.652	257.269	134.989	129.044	164.687	130.572	108.824	106.126	104.813	142.700	134.273	128.018	195.627	160.629	43.939
65.000	285.893	292.076	256.003	288.853	310.172	312.727	314.517	275.007	285.033	291.742	222.724	255.239	133.556	127.660	163.661	130.166	108.680	105.983	104.765	142.557	134.129	127.397	195.580	162.515	44.571
66.000	287.373	293.485	256.934	288.996	310.483	313.085	314.398	275.150	284.604	292.148	222.413	253.592	132.387	126.227	162.372	129.952	108.394	106.054	104.670	142.485	134.297	126.753	195.747	164.735	41.413
67.000	288.853	294.153	258.415	289.283	310.483	313.037	314.684	275.675	285.033	292.625	222.891	251.038	131.193	124.962	161.202	129.761	108.513	105.887	104.502	142.246	134.106	126.490	195.651	167.051	37.487
68.000	289.617	295.490	259.274	289.569	310.888	313.180	314.660	275.484	284.842	293.031	222.915	248.650	130.262	124.031	160.080	129.331	108.298	105.768	104.502	142.199	134.392	126.060	195.508	169.080	37.442
69.000	290.954	296.421	260.110	289.689	310.984	313.491	314.684	275.842	284.986	293.294	223.034	246.335	129.068	123.219	159.125	129.211	108.060	105.601	104.455	142.127	134.249	125.607	195.627	171.444	41.007
70.000	291.432	297.018	260.802	290.286	311.175	313.443	314.828	275.890	284.842	293.914	223.106	244.401	128.400	122.264	158.170	128.830	108.060	105.625	104.479	142.103	134.249	125.296	195.508	173.735	44.165
71.000	292.291	298.068	262.234	289.999	311.032	313.347	314.708	275.794	284.795	294.177	222.819	242.300	127.660	121.453	157.215	128.591	107.916	105.696	104.526	142.055	134.249	124.819	195.413	175.812	42.811
72.000	292.888	298.570	263.046	290.620	311.127	313.347	314.851	275.771	284.771	294.320	222.676	240.247	126.681	120.904	156.451	128.495	107.940	105.553	104.502	141.912	134.416	124.532	195.484	177.985	39.427
73.000	293.294	298.928	263.500	290.835	311.294	313.347	314.613	276.009	284.890	294.678	222.915	238.098	126.466	120.378	155.592	128.376	107.869	105.481	104.502	141.864	134.344	124.413	195.413	180.062	38.254
74.000	293.819	299.740	264.120	290.596	311.079	313.443	314.875	276.200	284.986	294.965	222.939	236.809	125.678	119.972	154.947	128.209	107.678	105.505	104.359	141.817	134.344	124.103	195.341	181.518	39.157
75.000	294.105	300.050	265.075	291.097	311.079	313.514	314.875	276.248	284.723	295.036	222.772	235.162	125.320	119.567	154.207	128.018	107.678	105.457	104.407	141.697	134.368	124.031	195.389	183.189	42.450
76.000	294.869	300.217	265.911	290.811	311.366	313.562	314.995	276.487	284.651	295.395	223.153	233.586	124.819	119.280	153.634	127.898	107.654	105.410	104.431	141.745	134.416	123.721	195.413	184.598	42.811
77.000	295.275	300.480	266.221	290.930	311.175	313.443	314.947	276.176	285.272	295.395	222.867	232.655	124.795	118.803	153.228	127.922	107.606	105.290	104.455	141.435	134.273	123.792	195.389	185.529	40.871
78.000	295.490	300.957	266.317	291.217	311.390	313.896	314.875	276.439	285.057	295.299	223.249	231.867	124.174	118.803	152.989	127.684	107.463	105.338	104.311	141.459	134.249	123.458	195.413	186.651	39.157
79.000	295.180	300.623	266.532	291.169	311.318	313.920	315.042	276.558	284.795	295.705	222.581	230.841	124.270	118.540	152.416	127.755	107.630	105.338	104.407	141.363	134.201	123.482	195.317	187.224	39.112
80.000	295.681	301.220	267.152	291.145	311.199	313.562	315.019	276.630	284.890	295.633	222.724	230.268	123.530	118.301	152.178	127.469	107.487	105.481	104.407	141.387	134.273	123.362	195.365	188.012	40.646
81.000	295.538	301.339	267.176	290.954	311.342	313.849	314.947	276.917	284.938	295.896	222.843	229.504	123.625	118.230	151.963	127.516	107.391	105.434	104.431	141.578	134.249	123.243	195.365	188.991	42.360
82.000	296.588	301.578	267.964	291.575	311.318	313.825	315.019	276.415	284.723	295.920	223.130	228.859	123.171	118.158	151.820	127.516	107.415	105.171	104.216	141.220	134.320	123.148	195.365	189.755	41.548
83.000	296.636	301.912	267.821	291.455	311.103	313.920	315.114	276.320	284.938	296.015	223.082	228.000	122.957	117.800	151.557	127.349	107.415	105.362	104.359	141.244	134.249	123.219	195.293	190.638	39.698
84.000	296.636	301.411	268.155	291.384	311.748	313.705	314.923	276.296	284.795	295.968	223.177	227.379	122.527	117.776	151.294	127.421	107.463	105.290	104.264	141.196	134.273	122.909	195.365	191.259	39.202
85.000	297.495	301.960	267.988	291.551	311.581	313.491	315.019	276.535	284.771	296.397	222.939	226.329	122.193	117.657	151.151	127.421	107.224	105.243	104.311	141.077	134.153	122.766	195.317	192.094	39.653
86.000	297.877	301.984	268.298	291.360	311.461	313.753	315.329	277.107	285.081	296.517	223.273	225.612	121.715	117.418	150.889	127.278	107.487	105.195	104.359	141.244	134.225	122.551	195.413	193.168	41.232
87.000	297.734	302.342	268.847	291.837	311.652	313.801	314.899	276.797	284.771	296.660	222.915	224.467	121.405	117.084	150.626	127.325	107.343	105.147	104.216	141.124	134.273	122.384	195.413	194.267	41.413
88.000	298.713	302.461	268.847	291.837	311.676	314.135	315.114	276.893	284.986	296.779	223.106	223.941	121.023	116.821	150.363	127.182	107.152	105.171	104.168	141.053	134.225	122.193	195.222	195.269	40.510
89.000	298.331	302.867	269.563	292.076	311.772	313.801	314.828	276.654	284.747	297.066	223.034	222.819	120.689	116.630	149.910	127.015	107.224	105.290	104.383	141.124	134.177	121.763	195.317	196.296	39.698
