-----------------------------------------------------
BloodHound 307 VOC Analyser V2017.1
RoboScientific Ltd 
Espace North
Wisbech Road
Littleport
Cambridgeshire, UK
CB6 1RA 
-----------------------------------------------------
Date = 24/03/2022
Time = 12:39:36
Data is protected by RoboScientific Limited
-----------------------------------------------------
Name of the experiment = "50a_Day 39"
-----------------------------------------------------
Repeat No. = 2/4
-----------------------------------------------------
Experimental Time (in sec) and Flow Profile :
-----------------------------------------------------
Baseline = 2.00
Absorb = 4.00
Pause = 1.00
Desorb = 5.00
Flush = 20.00
Wait = 5.00
Higher Flow (V) = 4.00
Medium Flow (V) = 3.00
Low Flow (V) = 1.00
-----------------------------------------------------
Total Profile Time = 37 in sec
-----------------------------------------------------
Acquired data point per second = 4
--------------------------------------------------
Total data point stored  = 128
-----------------------------------------------------
Acquired sensor responses from 24 sensors
-----------------------------------------------------

Data Points	 Sen-1	 Sen-2	 Sen-3	 Sen-4	 Sen-5	 Sen-6	 Sen-7	 Sen-8	 Sen-9	 Sen-10	 Sen-11	 Sen-12	 Sen-13	 Sen-14	 Sen-15	 Sen-16	 Sen-17	 Sen-18	 Sen-19	 Sen-20	 Sen-21	 Sen-22	 Sen-23	 Sen-24	Humidity (%r.h.)
0.000	305.278	305.708	272.261	293.174	312.321	314.446	315.281	277.895	285.057	300.862	223.703	222.079	114.386	113.789	147.188	125.654	106.723	104.861	104.049	139.811	133.962	117.848	194.935	197.394	39.292
1.000	304.920	305.660	272.333	293.127	312.225	314.422	315.138	278.182	285.081	301.363	223.607	222.700	114.458	113.789	147.045	125.559	106.532	104.717	104.025	139.931	133.986	117.967	194.887	197.346	39.472
2.000	305.326	305.947	272.548	293.150	312.416	314.111	315.472	278.230	284.866	300.933	223.416	222.748	114.625	113.741	146.997	125.583	106.627	104.932	104.073	139.692	134.034	117.704	194.887	197.322	40.555
3.000	305.541	305.708	272.428	293.150	312.178	314.278	315.711	278.253	284.914	301.076	223.965	222.724	114.577	113.885	146.997	125.559	106.675	104.813	104.120	139.787	133.962	117.800	194.887	196.988	41.187
4.000	304.992	305.708	272.333	293.461	311.915	314.326	315.377	278.110	285.129	301.602	223.344	223.321	114.362	113.622	146.758	125.487	106.603	104.741	104.120	139.764	134.034	117.800	194.863	196.845	40.600
5.000	305.326	305.851	272.548	293.795	312.440	314.183	315.281	277.800	284.938	301.100	223.607	223.297	114.123	113.694	146.926	125.559	106.556	104.693	103.953	139.716	134.034	117.704	194.840	196.630	39.518
6.000	305.970	305.780	272.882	293.485	312.130	314.517	315.687	278.182	285.129	301.482	223.535	223.679	114.147	113.622	146.663	125.392	106.627	104.884	104.168	139.835	134.010	117.466	194.935	196.463	39.292
7.000	305.612	306.209	273.025	293.819	312.392	314.255	315.066	278.039	284.914	301.387	223.965	223.750	113.885	113.598	146.687	125.368	106.436	104.789	104.049	139.859	133.986	117.394	194.792	196.320	39.788
8.000	305.230	305.947	272.930	293.079	311.843	314.087	315.281	278.206	285.368	301.864	223.846	223.894	114.123	113.431	146.400	125.487	106.651	104.741	104.049	139.740	134.106	117.442	194.792	195.986	41.142
9.000	305.445	306.066	273.049	293.891	312.321	314.111	315.090	278.182	285.057	301.721	223.535	223.870	113.837	113.288	146.329	125.320	106.579	104.789	104.025	139.835	134.177	117.370	194.744	195.771	41.187
10.000	304.061	305.087	272.667	293.079	311.963	313.944	315.377	278.230	285.320	301.124	222.963	254.929	115.269	114.505	146.615	125.559	106.627	104.837	103.882	139.668	133.795	117.872	194.983	165.332	40.104
11.000	275.341	287.301	270.065	292.100	311.676	313.896	315.066	277.704	286.036	288.710	221.267	288.495	145.231	133.103	149.003	126.896	107.152	105.219	104.192	140.169	133.318	131.097	196.678	128.901	45.112
12.000	230.769	243.040	263.523	289.020	311.032	312.846	315.066	275.747	286.156	257.436	220.289	303.917	187.081	174.547	155.281	129.331	107.869	105.839	104.383	141.673	132.602	160.510	198.110	113.909	47.007
13.000	246.024	255.192	253.544	283.816	309.528	312.034	314.111	272.619	286.275	234.255	218.928	311.772	172.351	163.398	164.950	134.583	108.776	106.747	104.765	144.920	132.506	184.455	198.994	106.365	38.525
14.000	269.396	279.781	244.114	275.317	308.740	311.294	314.135	269.014	286.108	221.745	218.331	317.979	151.318	139.787	176.171	143.130	110.232	107.845	105.171	148.382	132.673	197.251	199.734	101.972	29.817
15.000	287.683	296.111	236.021	266.102	307.212	309.695	313.467	265.362	285.654	235.759	217.949	320.486	132.864	123.339	185.744	152.607	111.521	108.895	105.553	152.631	133.509	182.879	200.450	98.439	34.103
16.000	300.289	306.257	233.491	256.720	305.493	308.597	312.942	260.539	284.938	248.937	217.161	323.088	119.137	112.619	188.991	161.942	113.312	110.399	106.245	156.976	134.129	170.107	201.166	96.529	47.368
17.000	309.289	312.464	235.830	248.483	303.368	306.663	312.201	255.645	283.864	260.635	217.472	325.189	109.755	105.290	183.142	169.820	115.508	111.999	106.794	161.823	134.798	157.454	201.500	94.404	53.459
18.000	316.212	318.194	239.722	241.226	300.694	304.538	311.199	250.226	282.885	271.091	216.684	326.335	102.139	100.945	176.266	176.911	117.490	114.076	107.749	167.266	135.872	146.305	201.978	93.043	44.300
19.000	320.891	321.369	244.640	234.517	298.641	302.270	310.339	244.496	281.906	281.285	216.206	327.910	97.937	97.699	169.486	183.643	120.068	116.559	108.800	173.186	136.803	137.567	202.240	93.067	31.847
20.000	325.021	323.828	248.770	228.883	296.135	299.405	309.170	238.910	280.760	288.662	216.397	328.412	94.476	94.523	164.019	190.471	122.670	119.304	109.969	179.489	137.854	130.166	202.455	92.303	29.140
21.000	327.504	326.526	253.139	222.151	293.270	296.063	307.737	232.727	279.877	294.201	216.302	328.603	92.279	92.924	158.624	196.797	125.416	122.622	111.426	185.744	138.880	123.792	202.551	91.611	39.833
22.000	328.841	327.815	256.982	217.161	290.214	292.506	305.780	226.400	278.850	299.334	216.111	328.674	90.202	91.086	154.159	201.572	128.543	125.965	113.049	191.784	139.883	119.471	202.885	91.468	52.331
23.000	330.512	328.817	260.253	220.432	286.609	288.495	303.941	221.029	277.680	302.628	215.991	330.345	88.961	90.513	150.339	197.991	131.909	129.784	114.887	197.346	141.172	115.341	202.933	90.942	51.519
24.000	331.085	329.987	263.500	226.305	283.171	284.365	301.721	218.355	276.224	305.708	216.302	329.677	87.696	90.131	147.021	191.951	135.633	134.010	117.179	200.712	142.318	112.476	202.933	90.346	39.021
25.000	331.825	330.011	265.768	231.199	279.208	280.211	299.501	220.193	275.412	308.501	215.872	330.942	87.576	88.507	144.610	188.179	139.549	138.164	119.423	198.230	143.822	110.781	202.980	90.465	28.193
26.000	332.064	330.823	267.343	230.912	277.871	278.707	298.617	220.504	275.150	307.880	216.039	329.892	87.314	88.269	143.727	188.227	141.077	139.835	120.880	198.253	144.156	110.686	203.315	90.632	33.020
27.000	332.351	330.775	267.677	229.814	278.039	278.731	297.973	220.002	274.744	307.737	215.896	330.584	87.409	88.961	143.249	189.205	141.100	139.978	121.118	198.588	144.037	111.092	203.291	90.871	46.917
28.000	332.756	330.918	268.250	228.716	278.230	278.874	298.021	219.811	275.245	307.355	215.800	330.441	87.218	88.865	143.368	190.232	140.551	139.525	121.309	198.994	144.037	111.617	203.243	90.990	54.091
29.000	332.733	331.085	268.274	227.570	278.564	279.208	297.424	219.549	275.269	306.472	215.490	330.656	86.693	88.412	143.273	191.259	140.146	139.334	121.691	199.185	143.894	111.617	203.339	90.346	45.879
30.000	333.138	330.680	268.919	231.151	277.131	277.370	296.326	221.673	274.505	308.429	215.896	330.202	86.502	87.887	142.485	187.296	141.411	141.172	122.599	196.678	144.299	109.969	203.076	90.489	32.389
31.000	332.613	331.300	270.399	236.427	273.908	274.434	294.583	222.772	274.123	309.265	215.872	330.823	86.955	87.839	140.933	182.616	145.063	144.204	124.676	195.222	145.207	109.492	203.124	90.680	28.644
32.000	331.205	331.324	271.354	238.170	271.306	272.572	293.389	221.888	274.290	306.138	215.800	330.154	88.125	88.292	139.692	181.136	148.000	146.448	125.917	196.248	144.252	112.763	203.004	91.611	38.976
33.000	329.390	330.321	272.404	237.334	271.306	272.763	293.676	220.265	275.866	300.145	216.373	328.555	89.677	89.032	139.358	181.470	147.809	145.875	125.774	198.994	142.724	118.086	202.431	91.969	51.970
34.000	327.695	329.510	272.572	235.162	273.025	274.577	294.320	225.350	277.943	293.341	217.042	326.335	92.255	90.059	139.596	183.524	145.875	144.085	124.747	193.168	141.100	126.108	202.002	93.759	51.113
35.000	324.449	328.817	271.354	231.390	275.532	276.678	295.991	231.748	279.757	283.458	217.328	325.045	94.786	91.253	140.002	187.654	143.177	141.769	123.458	186.030	139.405	136.397	201.238	94.905	39.157
36.000	320.724	327.409	271.330	226.162	277.991	279.399	297.113	237.573	280.832	271.426	218.283	322.563	98.558	91.850	141.029	192.786	140.432	139.429	121.811	179.752	138.021	148.764	200.402	97.603	28.915
37.000	318.074	325.165	269.969	220.527	281.333	282.002	298.761	243.112	282.169	258.200	218.713	319.674	102.091	94.404	142.533	198.230	137.305	136.827	120.450	173.998	136.803	160.629	199.543	99.561	33.111
38.000	312.679	322.706	268.800	216.970	284.031	284.556	300.169	247.839	282.837	243.541	219.501	317.334	107.057	95.980	143.488	201.787	134.464	134.010	118.779	169.176	135.992	174.619	199.161	102.688	45.789
39.000	306.591	320.032	267.105	223.297	286.752	287.349	301.721	251.324	283.673	229.432	219.692	314.589	112.930	98.391	145.613	195.771	131.742	131.432	117.561	165.069	135.538	188.919	198.850	104.240	52.241
40.000	298.403	318.003	264.216	230.459	289.068	289.522	303.512	254.619	283.959	218.188	220.217	311.772	121.429	101.327	148.215	188.346	129.164	129.283	115.962	161.560	134.989	201.572	198.540	107.582	44.887
41.000	289.283	314.469	262.354	236.952	291.360	291.670	304.252	257.388	283.911	225.971	220.145	308.835	131.647	105.052	151.008	181.327	126.943	126.896	114.720	158.910	134.774	192.834	198.206	110.328	33.878
42.000	276.797	310.459	259.322	243.876	293.628	293.938	305.660	259.489	284.317	235.735	220.623	306.472	142.772	108.155	154.111	174.452	124.867	124.485	113.383	156.714	134.464	183.094	197.633	113.288	30.810
43.000	263.929	306.424	255.765	250.083	295.466	295.729	306.472	261.447	284.556	243.995	220.766	303.177	155.186	112.619	157.454	168.459	123.052	122.575	112.237	154.780	134.392	174.762	197.466	116.153	39.157
44.000	250.321	301.626	252.828	255.120	297.328	298.212	307.785	263.022	284.938	251.062	221.005	300.456	168.197	117.418	161.632	163.136	121.309	120.880	111.497	153.300	134.344	168.292	197.322	118.612	49.263
45.000	240.199	295.681	249.152	260.014	298.665	299.835	308.573	264.287	284.819	256.409	221.363	298.116	179.656	123.768	165.117	158.600	119.949	118.970	110.423	151.939	134.225	162.372	197.179	120.569	48.226
46.000	230.984	288.424	245.499	263.882	300.408	301.673	309.742	265.839	284.723	261.351	221.697	295.586	188.704	131.241	169.605	154.756	118.540	117.394	109.611	150.698	134.082	157.788	197.012	123.195	39.563
47.000	224.347	279.614	242.014	266.675	301.196	302.986	310.363	266.890	285.129	265.051	221.554	293.938	196.057	140.217	173.879	151.581	117.227	115.914	108.919	149.886	134.129	153.706	196.988	125.248	31.938
48.000	220.408	269.062	238.647	269.659	302.413	304.132	310.506	267.773	284.795	268.036	221.435	291.050	199.376	149.934	177.961	148.597	116.200	114.482	108.298	148.859	134.129	150.745	196.606	127.373	34.554
49.000	224.562	257.030	235.615	272.404	303.321	305.326	311.175	268.537	285.081	271.235	222.008	290.119	195.054	161.799	181.256	145.851	115.269	113.383	107.940	148.024	134.082	147.475	196.391	128.806	44.030
50.000	232.130	243.470	232.774	275.030	304.466	306.782	311.652	269.659	284.723	274.386	222.151	287.636	187.463	175.072	185.219	143.559	114.458	112.023	107.415	147.379	134.082	144.729	196.320	131.145	49.128
51.000	239.364	231.820	230.984	277.179	305.183	307.976	312.010	270.256	284.962	276.893	222.031	285.248	180.110	187.964	188.585	141.459	113.598	110.924	106.914	146.758	134.106	142.485	196.224	133.437	44.210
52.000	245.308	221.721	230.316	278.683	305.350	308.811	312.512	270.924	285.033	278.492	222.270	283.315	173.879	198.110	190.304	139.835	112.930	110.208	106.699	146.209	133.986	140.122	196.176	135.180	36.404
53.000	251.062	228.453	231.008	279.996	306.352	309.504	312.822	271.473	284.723	280.235	222.318	281.906	168.173	191.115	189.993	138.236	112.428	109.373	106.269	145.708	134.058	138.832	196.081	137.185	33.291
54.000	256.123	238.146	232.297	281.739	307.236	310.172	313.133	271.879	284.795	281.500	222.079	279.519	163.446	181.351	189.014	136.994	111.808	108.895	106.126	145.374	134.082	137.400	196.129	138.570	38.796
55.000	260.730	247.146	234.159	282.742	307.284	310.483	313.371	272.381	284.699	282.909	222.509	277.728	159.268	172.446	186.746	136.063	111.426	108.274	105.935	144.992	134.201	136.278	195.914	140.265	46.511
56.000	264.526	255.574	236.117	283.482	307.522	310.888	313.300	272.643	284.747	283.744	222.366	276.391	155.496	164.067	184.669	135.060	111.068	108.012	105.696	144.538	133.986	135.132	195.914	141.793	46.556
57.000	267.534	262.664	238.074	284.174	308.238	311.199	313.658	273.097	284.986	284.914	222.700	275.245	152.011	157.143	182.425	134.320	110.471	107.630	105.601	144.252	134.201	134.416	195.890	143.249	40.330
58.000	270.375	267.677	239.937	284.723	308.501	311.605	314.255	273.789	285.105	285.774	222.604	273.574	149.289	151.653	180.253	133.819	110.399	107.248	105.386	143.894	134.129	133.461	195.795	144.896	34.329
59.000	272.595	272.715	242.037	285.606	308.835	311.676	313.682	273.431	284.795	286.752	222.294	272.237	146.591	146.639	178.295	133.174	109.946	107.033	105.338	143.846	134.249	132.602	195.627	146.448	36.089
60.000	275.221	276.726	243.303	286.156	309.170	312.082	313.968	273.932	284.819	287.063	223.010	270.447	144.061	142.819	176.457	132.530	109.802	106.699	105.290	143.440	134.129	132.076	195.747	147.713	43.262
61.000	277.418	279.948	245.045	286.466	309.146	312.416	314.446	274.076	284.890	287.970	222.413	268.800	142.270	139.573	174.690	132.076	109.564	106.508	105.099	143.345	134.201	131.169	195.580	149.337	46.601
62.000	279.638	282.646	246.669	286.919	309.599	312.631	314.278	274.386	284.890	288.853	222.939	267.009	140.360	136.779	172.995	131.670	109.349	106.341	105.075	143.273	134.153	130.453	195.580	151.175	43.037
63.000	280.879	284.604	248.268	287.540	309.838	312.774	314.183	274.601	284.842	288.853	222.819	265.696	138.785	134.559	171.396	131.169	109.206	106.317	104.980	142.867	134.106	130.166	195.532	152.775	37.623
64.000	282.169	286.347	249.295	287.874	310.101	313.013	314.207	274.649	285.129	289.928	223.034	264.574	137.687	132.840	169.868	130.835	109.110	106.174	104.980	142.986	134.153	129.522	195.556	153.873	35.186
65.000	283.004	288.233	250.656	288.328	309.623	312.631	314.422	275.007	284.914	289.999	222.986	263.022	136.564	131.408	168.603	130.501	108.895	106.245	104.789	142.724	134.225	129.355	195.508	154.995	39.066
66.000	283.935	289.283	251.993	288.567	310.244	312.918	314.493	274.935	284.771	290.429	222.604	262.091	135.490	130.334	167.695	130.238	108.656	105.959	104.717	142.557	134.177	128.997	195.389	156.499	44.842
67.000	285.463	290.620	252.733	289.140	310.674	312.989	314.398	275.508	284.938	290.596	222.915	260.181	134.320	129.044	166.597	130.047	108.537	106.006	104.789	142.437	134.177	128.662	195.580	157.860	44.887
68.000	286.776	291.694	253.592	289.020	310.554	313.109	314.660	275.484	284.938	290.763	223.082	258.868	133.246	127.755	165.475	129.880	108.489	105.768	104.646	142.390	134.106	128.257	195.436	159.579	40.961
69.000	287.540	292.673	254.619	289.259	310.387	313.180	314.851	275.556	284.771	291.288	222.795	256.720	132.243	126.585	164.425	129.570	108.394	105.720	104.693	142.103	134.249	127.875	195.389	161.297	36.449
70.000	288.400	293.914	255.598	289.546	310.626	313.228	314.493	275.412	285.057	291.885	222.772	255.168	131.360	125.774	163.637	129.235	108.251	105.768	104.693	142.270	134.177	127.373	195.365	163.183	37.036
71.000	289.283	294.726	256.672	289.951	310.626	313.467	314.708	275.818	284.747	291.575	223.106	253.258	130.405	124.843	162.658	129.164	108.203	105.648	104.526	141.864	134.225	127.087	195.174	164.902	41.728
72.000	290.071	295.920	257.531	290.214	310.912	313.133	314.613	275.651	285.057	292.315	222.963	251.730	129.713	123.935	161.894	128.973	108.227	105.768	104.622	141.936	134.058	126.800	195.245	166.430	44.616
73.000	290.620	296.254	258.534	290.095	311.032	313.395	314.780	275.842	284.842	292.434	223.392	250.202	128.973	123.410	160.987	128.830	108.036	105.625	104.502	141.960	134.177	126.347	195.245	168.292	42.856
74.000	291.623	297.233	259.202	290.500	310.745	313.491	314.613	275.866	284.675	292.768	223.416	248.173	128.280	122.670	160.533	128.591	107.988	105.529	104.502	141.817	134.177	126.203	195.126	170.011	39.292
75.000	291.790	297.448	259.990	290.095	310.721	313.443	314.780	275.771	284.699	293.055	223.392	246.597	127.684	122.169	159.579	128.376	107.869	105.529	104.479	141.530	134.177	126.012	195.078	171.730	37.217
76.000	292.625	298.212	260.062	290.477	311.175	313.395	314.828	276.105	284.842	293.676	223.416	245.308	126.920	121.500	158.838	128.185	107.845	105.386	104.455	141.626	134.177	125.630	195.078	173.258	39.021
77.000	293.604	298.450	260.921	290.500	310.865	313.682	314.971	276.224	285.057	293.843	223.368	243.398	126.538	121.023	158.409	128.257	107.773	105.505	104.455	141.602	134.225	125.368	195.150	174.953	42.947
78.000	293.986	298.546	261.256	291.097	311.390	313.801	315.138	276.582	284.699	293.938	223.201	242.061	125.989	120.689	157.669	127.970	107.749	105.362	104.383	141.482	134.201	125.296	195.102	176.362	43.894
79.000	293.986	299.095	262.234	291.121	311.461	313.491	314.875	276.224	284.747	293.771	222.963	240.772	125.678	120.235	157.191	127.803	107.606	105.314	104.479	141.482	134.201	125.010	194.983	177.627	41.097
80.000	294.416	299.620	262.258	291.097	311.748	313.777	314.947	276.296	284.819	294.034	223.273	239.960	125.439	120.140	156.857	127.755	107.654	105.410	104.359	141.411	134.106	124.795	195.102	178.486	38.886
81.000	294.583	299.692	262.783	291.360	311.247	313.682	315.186	276.296	284.723	294.177	223.082	239.483	125.296	119.781	156.356	127.707	107.487	105.195	104.407	141.315	134.201	124.771	195.102	179.441	38.299
82.000	295.060	300.145	263.189	291.384	311.247	313.634	315.066	276.582	285.033	294.368	223.130	238.337	124.867	119.662	156.141	127.660	107.606	105.362	104.311	141.196	134.129	124.843	195.126	179.966	40.555
83.000	295.108	299.835	263.356	291.264	311.438	313.729	314.947	276.773	284.842	294.440	223.058	237.549	124.747	119.399	155.735	127.540	107.606	105.338	104.479	141.268	134.010	124.652	195.078	181.136	43.353
84.000	295.681	300.384	263.834	291.050	311.223	314.064	315.090	276.726	285.224	294.511	223.106	236.427	124.270	119.113	155.401	127.540	107.558	105.386	104.359	141.172	134.129	124.437	195.078	182.115	42.586
85.000	296.588	300.623	263.714	291.861	311.867	314.064	315.114	276.821	284.914	294.631	223.512	234.732	123.410	118.874	155.210	127.516	107.487	105.314	104.216	141.124	134.177	124.174	195.150	183.882	39.698
86.000	296.755	301.053	264.598	291.575	311.533	313.634	314.804	276.535	284.723	295.180	223.607	233.133	123.100	118.397	154.613	127.469	107.534	105.195	104.383	141.029	134.129	123.888	194.983	185.481	39.021
87.000	297.066	301.291	265.028	291.527	311.557	313.873	315.138	276.726	284.819	295.442	223.607	231.461	122.479	118.110	154.135	127.302	107.320	105.123	104.264	141.124	134.177	123.601	195.031	187.009	39.112
88.000	297.018	301.912	265.409	291.503	311.294	313.682	315.186	276.821	284.819	295.920	223.392	230.148	122.312	117.824	153.730	127.063	107.320	105.195	104.383	141.029	134.129	123.339	194.887	188.298	41.503
89.000	297.663	301.936	265.696	291.718	311.939	313.920	315.138	276.917	285.081	295.800	223.512	228.979	122.073	117.800	153.204	127.134	107.367	105.147	104.097	140.862	134.106	123.219	195.078	189.373	42.315
