-----------------------------------------------------
BloodHound 307 VOC Analyser V2017.1
RoboScientific Ltd 
Espace North
Wisbech Road
Littleport
Cambridgeshire, UK
CB6 1RA 
-----------------------------------------------------
Date = 24/03/2022
Time = 12:10:30
Data is protected by RoboScientific Limited
-----------------------------------------------------
Name of the experiment = "50a_Day 29"
-----------------------------------------------------
Repeat No. = 2/4
-----------------------------------------------------
Experimental Time (in sec) and Flow Profile :
-----------------------------------------------------
Baseline = 2.00
Absorb = 4.00
Pause = 1.00
Desorb = 5.00
Flush = 20.00
Wait = 5.00
Higher Flow (V) = 4.00
Medium Flow (V) = 3.00
Low Flow (V) = 1.00
-----------------------------------------------------
Total Profile Time = 37 in sec
-----------------------------------------------------
Acquired data point per second = 4
--------------------------------------------------
Total data point stored  = 128
-----------------------------------------------------
Acquired sensor responses from 24 sensors
-----------------------------------------------------

Data Points	 Sen-1	 Sen-2	 Sen-3	 Sen-4	 Sen-5	 Sen-6	 Sen-7	 Sen-8	 Sen-9	 Sen-10	 Sen-11	 Sen-12	 Sen-13	 Sen-14	 Sen-15	 Sen-16	 Sen-17	 Sen-18	 Sen-19	 Sen-20	 Sen-21	 Sen-22	 Sen-23	 Sen-24	Humidity (%r.h.)
0.000	305.994	306.424	277.967	293.867	312.583	314.183	315.281	277.704	284.986	301.793	223.392	228.191	113.360	113.073	141.339	125.225	106.293	104.932	103.906	140.098	134.201	117.108	195.365	191.378	41.638
1.000	306.185	306.782	278.086	293.604	312.321	314.135	315.186	277.824	284.986	301.888	223.058	228.525	113.216	113.216	141.482	125.320	106.436	104.980	104.144	140.169	134.344	116.797	195.317	191.235	41.819
2.000	305.994	306.424	278.277	293.580	312.416	313.992	315.353	277.967	284.914	302.318	223.273	228.382	113.145	113.025	141.220	125.392	106.412	104.861	104.097	140.169	134.225	116.869	195.293	190.996	40.375
3.000	306.090	306.352	278.492	293.652	312.512	314.040	315.138	277.943	284.819	302.103	223.297	228.740	113.073	112.930	141.196	125.392	106.460	104.741	104.049	140.193	134.201	116.988	195.317	190.829	39.292
4.000	306.543	306.496	278.325	293.628	312.369	314.302	315.472	278.206	284.866	302.222	223.488	229.002	113.169	112.978	141.100	125.201	106.412	104.837	104.097	140.026	134.201	116.917	195.269	190.614	39.202
5.000	306.352	306.758	278.110	293.628	312.297	314.183	315.544	278.182	284.986	302.413	223.297	229.122	112.930	112.858	141.172	125.248	106.365	104.908	104.049	140.050	134.129	116.750	195.341	190.328	40.961
6.000	306.138	306.711	278.301	294.105	312.798	314.159	315.353	278.039	284.771	302.318	223.153	229.337	113.049	112.882	141.077	125.272	106.341	104.837	104.025	140.074	134.249	116.869	195.317	190.065	42.225
7.000	306.352	306.257	278.397	293.843	312.751	314.207	315.257	278.134	284.962	302.366	223.416	229.289	112.954	112.858	140.933	125.153	106.388	104.932	103.977	139.978	134.249	116.654	195.389	190.065	40.961
8.000	306.758	306.663	278.564	293.676	312.416	314.207	315.281	277.967	285.153	302.294	222.891	230.029	113.001	112.715	140.647	125.392	106.412	104.932	103.929	140.026	134.177	116.702	195.198	189.564	39.157
9.000	306.878	307.140	278.755	293.461	312.345	314.183	315.138	278.015	284.747	302.604	223.177	230.411	112.524	112.500	140.504	125.129	106.365	104.908	103.977	139.907	134.225	116.535	195.150	188.728	38.931
10.000	304.777	305.684	278.421	292.912	312.440	314.064	315.329	278.253	285.105	301.769	222.557	248.865	114.171	113.527	140.527	125.201	106.460	105.052	104.025	139.883	133.747	116.988	195.556	166.597	40.194
11.000	275.580	286.657	276.367	292.028	311.987	313.944	315.210	277.418	285.535	289.355	220.909	286.585	141.530	131.814	142.939	126.394	106.770	105.195	103.953	140.408	133.389	128.304	197.179	131.814	37.352
12.000	234.589	243.876	270.136	289.426	311.151	312.989	314.756	275.675	286.179	261.279	219.835	302.198	185.266	176.576	149.289	129.259	107.511	106.030	104.264	142.008	132.792	158.122	198.707	116.177	34.013
13.000	243.613	256.600	261.256	284.461	310.602	311.939	314.660	272.572	286.490	237.740	218.737	309.790	176.218	163.064	158.122	134.559	108.394	106.938	104.574	145.445	132.673	181.232	199.805	108.060	43.804
14.000	265.887	279.471	251.611	276.057	309.122	311.079	314.064	268.800	285.941	219.787	217.782	314.780	152.369	138.809	167.672	143.177	109.611	107.797	105.028	149.170	133.151	198.253	200.617	103.094	51.745
15.000	284.747	295.395	242.801	266.484	307.307	309.504	313.467	264.693	285.201	231.438	217.448	318.910	133.747	123.410	177.054	151.891	111.259	108.824	105.338	152.369	133.342	185.768	201.357	99.632	46.060
16.000	298.212	305.350	237.072	257.412	305.708	308.238	313.156	260.062	284.866	245.642	216.708	320.653	120.904	112.834	184.956	160.915	112.810	110.280	105.911	157.143	134.249	172.661	201.906	98.176	33.427
17.000	308.549	312.607	235.210	250.154	303.726	306.448	312.249	255.335	283.697	257.555	216.182	322.968	110.972	106.388	187.057	168.937	114.840	112.166	106.723	162.228	134.869	160.868	202.598	96.433	29.230
18.000	315.973	317.979	236.833	243.183	301.769	304.586	311.700	249.987	283.195	268.632	215.681	324.067	104.670	101.065	182.593	175.789	117.036	114.028	107.367	167.839	136.087	149.552	202.885	95.454	38.705
19.000	320.080	320.748	240.533	236.785	299.740	302.055	310.793	244.449	281.667	278.397	215.442	324.353	98.415	98.224	176.362	182.688	119.376	116.630	108.465	173.807	137.018	139.740	203.267	94.595	51.925
20.000	323.470	323.708	244.258	229.981	297.066	299.238	309.742	238.051	280.498	286.084	215.395	325.809	95.311	95.669	170.083	188.585	121.858	119.113	109.373	179.393	137.854	131.599	203.315	93.067	50.843
21.000	326.764	325.236	248.054	223.225	294.153	295.991	308.238	231.987	279.877	292.912	215.418	327.122	92.399	93.497	164.544	195.150	124.246	122.312	110.972	185.744	139.071	125.344	203.601	93.306	37.668
22.000	328.412	326.955	251.849	218.164	291.408	292.530	306.496	226.520	278.755	297.161	215.180	327.552	90.727	92.208	159.960	200.832	127.469	125.917	112.333	191.664	139.859	121.118	203.625	92.470	28.554
23.000	330.154	328.459	255.884	219.740	288.280	288.591	305.016	221.244	277.943	301.244	215.204	327.409	89.749	90.990	156.117	199.423	130.453	129.593	114.171	197.322	141.411	116.941	203.721	92.995	34.194
24.000	330.823	328.531	258.391	224.872	284.842	284.604	303.034	217.973	276.702	304.419	215.013	328.770	88.245	90.560	152.345	193.646	134.177	134.082	116.200	200.927	142.246	114.028	203.959	91.348	48.271
25.000	331.085	330.226	260.372	228.835	281.643	280.569	301.100	219.716	275.580	306.663	214.941	328.531	88.125	88.913	149.719	190.065	137.687	137.997	118.397	199.185	143.703	111.521	203.888	92.041	53.685
26.000	332.016	329.868	261.709	228.859	280.139	279.232	299.811	220.050	274.625	306.185	215.180	328.483	88.412	88.388	148.549	190.256	139.095	139.644	119.590	199.137	143.941	111.999	204.031	91.897	43.714
27.000	331.921	329.701	262.401	228.095	280.163	278.874	299.286	219.238	274.983	306.734	215.180	328.531	87.481	89.367	148.286	190.900	138.832	139.764	119.567	199.447	143.774	112.309	203.911	91.277	30.945
28.000	331.658	330.942	262.330	227.116	280.474	278.826	299.334	219.381	275.460	306.281	215.251	328.435	87.743	88.865	148.143	192.070	138.522	139.596	119.949	199.686	143.607	112.428	203.721	91.945	29.727
29.000	332.303	330.417	262.569	225.994	280.951	279.089	299.286	219.358	275.508	305.612	215.251	328.507	87.958	88.054	148.501	193.097	138.188	139.644	120.354	199.805	143.631	112.810	203.935	92.160	41.232
30.000	332.566	330.656	263.380	229.599	279.208	277.107	297.854	220.838	274.720	307.761	215.275	329.056	87.409	87.815	147.117	189.110	139.740	141.411	121.476	197.466	144.109	110.853	203.625	92.112	53.279
31.000	331.778	330.894	265.409	233.682	275.794	274.171	296.421	221.530	274.720	307.522	214.941	329.271	88.221	88.674	145.660	185.051	142.939	144.467	123.171	197.131	144.538	111.855	203.864	93.019	49.444
32.000	330.512	330.489	266.221	234.350	274.672	272.858	295.442	220.050	275.603	303.082	215.204	327.027	89.295	89.462	144.705	184.216	144.777	145.732	123.912	198.850	143.607	115.914	203.721	92.995	36.134
33.000	327.815	329.462	267.033	233.634	275.245	274.290	295.824	222.795	277.036	296.540	215.657	326.382	91.873	90.369	143.703	185.242	143.655	144.490	123.267	195.436	141.841	122.861	203.076	94.643	28.373
34.000	325.236	328.841	266.818	230.363	277.513	276.224	296.469	229.456	278.779	287.254	216.636	323.708	93.759	91.014	144.061	188.036	141.435	142.342	122.169	188.251	139.907	132.005	202.288	95.813	35.592
35.000	322.443	326.597	266.603	225.780	280.020	278.444	298.235	236.332	280.139	275.174	217.185	321.345	97.293	92.709	145.040	192.810	138.880	140.146	121.095	181.470	138.451	143.392	201.429	98.606	48.857
36.000	318.671	324.878	265.290	220.241	282.956	281.476	299.596	241.990	281.787	262.640	217.734	319.101	101.709	94.213	146.305	198.373	135.968	137.496	119.662	175.407	137.376	157.215	200.641	99.895	52.151
37.000	313.443	322.897	264.001	217.376	285.917	284.126	301.411	246.931	282.575	248.316	218.355	316.714	106.914	96.505	147.881	201.524	133.437	134.774	118.086	170.083	136.397	171.993	200.020	102.998	41.593
38.000	307.331	319.507	261.972	223.297	288.519	286.848	302.103	250.918	283.028	233.013	219.000	313.849	112.906	99.203	149.934	195.245	130.739	132.052	116.630	165.738	135.753	186.794	199.781	105.935	31.080
39.000	298.808	317.573	259.871	230.626	290.739	289.140	303.655	254.189	283.386	219.787	219.596	310.005	120.163	102.402	151.987	187.916	128.161	129.546	115.246	162.372	135.108	199.734	199.137	108.251	31.892
40.000	288.782	313.109	257.555	237.597	293.031	291.455	304.801	257.245	283.744	225.207	219.429	307.785	130.644	105.911	154.517	180.754	125.750	127.039	114.028	159.316	134.726	193.479	198.779	110.972	42.676
41.000	276.558	308.692	254.905	244.496	294.941	293.843	306.114	259.202	284.222	235.520	220.050	304.657	142.652	110.113	158.051	174.022	124.079	125.081	113.025	157.096	134.559	183.929	198.612	114.267	50.978
42.000	263.380	304.992	251.611	250.775	296.493	295.848	307.331	261.518	284.628	244.091	219.740	301.387	157.358	114.720	161.608	168.054	122.336	122.933	111.832	155.186	134.464	174.810	198.349	116.917	46.466
43.000	249.223	299.143	248.865	255.765	298.140	298.021	308.334	262.998	284.341	251.276	220.384	299.310	170.656	120.545	165.475	162.682	120.498	120.856	110.924	153.467	134.320	167.672	198.015	119.519	36.314
44.000	236.690	292.005	245.571	260.778	299.811	299.692	308.907	264.287	284.580	257.197	220.527	296.755	183.333	127.111	169.534	158.051	118.946	118.922	109.874	151.963	134.225	161.679	197.848	121.739	31.531
45.000	227.140	284.246	242.133	264.311	300.814	301.315	309.933	265.624	284.699	262.306	220.695	293.747	192.237	135.084	173.473	153.992	117.895	117.322	109.229	150.960	134.201	156.833	197.752	124.365	37.262
46.000	220.742	274.123	238.791	267.940	301.888	302.580	310.411	266.746	284.675	266.221	220.790	291.455	198.779	144.419	177.603	150.960	116.630	115.986	108.585	149.958	134.201	152.679	197.537	126.394	47.504
47.000	222.891	263.165	236.284	270.781	303.177	304.132	311.199	268.059	284.914	269.898	220.862	289.307	197.108	156.045	181.423	147.833	115.508	114.720	108.060	148.931	134.225	149.337	197.299	128.734	48.135
48.000	229.647	250.680	234.183	273.550	304.275	305.589	311.557	268.823	284.723	273.288	220.909	287.063	189.778	168.794	184.765	145.469	114.505	113.336	107.630	148.119	134.320	145.947	197.108	131.360	40.691
49.000	237.119	236.594	232.536	275.126	304.777	306.591	312.178	269.754	284.819	275.866	221.673	285.057	182.234	182.879	187.463	143.177	113.765	112.118	107.152	147.093	134.273	143.034	196.773	133.222	33.336
50.000	244.783	223.416	232.106	277.752	305.827	307.856	312.512	270.351	284.675	278.612	221.673	282.598	174.428	195.962	189.373	140.599	112.978	110.924	106.770	146.854	134.201	140.193	196.917	135.228	35.412
51.000	251.539	228.215	233.180	279.925	306.591	308.716	312.345	270.757	284.675	280.808	221.864	279.805	167.982	191.736	188.107	138.785	112.118	109.993	106.508	146.281	134.249	138.116	196.821	138.331	43.488
52.000	256.409	239.029	235.424	281.357	307.164	309.910	312.846	271.402	284.723	282.360	221.721	277.060	163.136	180.945	185.815	137.424	111.736	109.134	106.078	145.660	134.344	136.636	196.869	140.360	47.639
53.000	261.494	248.961	237.764	282.742	307.952	310.435	313.634	272.237	284.795	283.625	221.984	275.556	158.528	170.680	182.879	136.159	111.187	108.680	105.911	145.374	134.225	135.371	196.558	142.461	43.082
54.000	265.123	256.839	240.199	284.198	308.215	310.817	313.228	272.524	284.842	284.962	221.769	273.288	154.470	161.679	180.062	135.037	110.805	107.964	105.720	144.896	134.225	134.058	196.630	144.419	36.675
55.000	268.632	264.478	242.515	284.675	308.525	311.247	313.658	272.715	284.484	286.108	222.031	271.593	150.984	154.613	177.078	134.225	110.328	107.678	105.529	144.586	134.320	133.031	196.558	146.257	34.509
56.000	271.712	270.447	244.950	285.845	308.931	311.605	313.658	273.312	284.604	286.824	222.079	269.826	147.904	148.549	174.571	133.461	109.946	107.415	105.505	144.371	134.273	132.100	196.535	148.215	39.653
57.000	274.672	275.627	247.170	286.108	309.002	311.891	314.135	273.646	284.699	287.898	222.294	267.773	145.254	143.894	172.375	132.864	109.755	107.176	105.195	143.918	134.297	131.265	196.344	149.934	45.789
58.000	276.869	279.590	249.510	286.466	309.480	312.225	314.207	273.646	284.819	288.877	222.199	265.696	142.795	139.883	170.202	132.172	109.349	106.914	105.028	143.727	134.368	130.739	196.344	151.772	44.661
59.000	278.277	282.670	251.181	287.158	309.575	312.345	313.968	274.219	284.842	289.355	222.151	264.335	141.029	136.899	168.197	131.718	109.206	106.723	105.052	143.512	134.368	130.047	196.272	153.371	39.788
60.000	279.996	284.580	252.971	287.373	309.647	312.655	314.350	274.171	284.771	289.522	222.246	262.545	139.692	134.559	166.311	131.312	108.943	106.508	105.028	143.273	134.392	129.784	196.033	155.257	35.141
61.000	281.238	286.681	254.666	287.922	310.268	312.416	314.278	274.362	284.651	289.808	222.413	260.921	138.092	132.649	164.902	130.954	108.824	106.436	104.932	143.225	134.273	129.426	196.296	156.547	37.803
62.000	282.646	288.280	255.788	288.089	310.554	312.774	314.446	274.649	284.484	290.047	222.222	259.441	137.209	131.145	163.709	130.525	108.585	106.293	104.956	143.177	134.392	128.997	196.153	158.098	43.894
63.000	284.031	289.641	256.576	288.805	310.697	312.918	314.302	274.696	284.938	290.548	222.461	257.603	135.729	129.832	162.515	130.238	108.561	106.388	104.741	142.795	134.201	128.495	196.057	160.032	44.887
64.000	284.914	290.954	257.985	289.307	310.530	313.133	314.589	275.198	284.580	290.691	222.318	255.812	134.488	128.376	161.465	129.999	108.394	106.126	104.765	142.748	134.297	128.400	196.057	161.942	41.638
65.000	286.227	292.243	258.725	289.164	310.817	313.085	314.756	275.198	284.675	290.882	222.270	253.926	133.580	127.087	160.247	129.761	108.322	106.126	104.717	142.628	134.320	127.994	196.105	163.637	37.352
66.000	287.325	293.222	259.680	289.593	310.793	313.037	314.493	275.341	284.819	291.336	222.222	252.231	132.578	126.299	159.411	129.522	108.155	105.983	104.622	142.413	134.273	127.707	196.009	165.618	37.081
67.000	287.755	294.225	260.778	289.569	310.459	312.607	314.708	275.436	284.842	291.790	222.318	250.250	131.670	125.368	158.624	129.379	108.131	106.030	104.550	142.390	134.249	127.493	195.962	167.290	41.142
68.000	288.877	295.251	261.709	289.617	310.697	312.774	314.732	275.556	285.033	292.076	222.676	249.176	130.859	124.532	157.621	129.283	108.298	106.126	104.741	142.390	134.344	127.134	195.795	168.961	44.390
69.000	289.044	295.442	262.282	289.928	310.865	312.894	314.756	275.508	284.890	292.005	222.628	247.504	130.262	123.983	157.048	128.925	107.892	105.815	104.574	142.342	134.201	127.015	195.962	170.393	42.721
70.000	290.238	296.111	263.022	290.071	311.103	313.276	315.042	275.675	284.699	292.243	222.581	245.905	129.689	123.386	156.427	128.853	107.916	105.792	104.574	142.199	134.297	126.872	195.842	171.849	39.608
71.000	290.572	296.708	264.001	290.071	311.056	312.989	314.613	275.794	284.532	292.530	222.724	244.449	128.901	122.742	155.806	128.662	107.845	105.768	104.479	142.079	134.249	126.562	195.914	173.783	37.577
72.000	291.264	297.567	264.359	290.381	311.270	313.204	314.565	275.747	284.747	292.601	222.581	242.945	128.376	122.312	155.210	128.543	107.701	105.744	104.455	142.008	134.392	126.466	195.842	174.881	39.202
73.000	291.790	297.925	264.908	290.500	311.175	313.109	314.660	275.866	284.771	292.936	222.318	241.870	128.113	121.763	154.637	128.519	107.725	105.648	104.622	141.984	134.344	126.323	195.723	176.266	43.217
74.000	292.601	297.710	264.956	290.333	311.127	313.658	315.138	276.081	284.890	293.079	222.628	240.390	127.493	121.429	154.207	128.304	107.725	105.648	104.479	141.864	134.320	126.108	195.818	177.627	43.578
75.000	292.697	298.331	265.648	290.715	311.175	313.705	314.780	275.842	284.795	293.341	222.748	239.364	126.991	120.951	153.682	128.352	107.582	105.577	104.407	141.793	134.344	126.036	195.699	178.749	40.510
76.000	293.031	298.808	266.030	290.548	311.270	313.634	314.947	275.914	284.747	293.389	222.604	238.122	126.394	120.689	153.228	128.233	107.487	105.601	104.502	141.745	134.392	125.630	195.699	180.110	38.615
77.000	293.723	299.381	266.508	290.835	311.581	313.371	314.780	276.057	285.081	293.628	222.700	236.952	125.702	120.378	152.966	127.970	107.391	105.529	104.479	141.602	134.320	125.439	195.747	181.494	38.931
78.000	293.938	299.787	267.033	291.241	311.366	313.443	314.947	275.866	284.556	293.795	222.628	235.305	125.344	119.996	152.297	127.970	107.463	105.553	104.455	141.769	134.320	125.320	195.842	182.616	41.367
79.000	294.774	299.716	267.248	290.668	311.485	313.586	314.971	276.463	284.771	293.867	222.843	234.279	125.010	119.471	151.939	127.875	107.415	105.457	104.383	141.626	134.273	125.010	195.675	184.001	43.217
80.000	294.822	300.193	267.415	291.121	311.628	313.228	314.851	276.272	284.819	294.296	222.509	233.013	124.532	119.280	151.844	127.660	107.367	105.720	104.407	141.626	134.273	124.771	195.604	185.123	41.593
81.000	295.562	300.408	268.083	291.169	311.199	313.491	315.090	276.582	284.962	294.416	222.557	232.584	124.198	119.041	151.366	127.588	107.391	105.457	104.264	141.482	134.320	124.556	195.723	186.197	39.518
82.000	295.991	300.527	268.298	291.455	311.605	313.705	315.162	276.344	284.914	294.654	222.795	231.199	123.792	118.707	150.912	127.516	107.367	105.553	104.288	141.578	134.273	124.437	195.556	187.367	39.112
83.000	296.111	301.005	268.728	291.360	311.342	313.467	315.019	276.391	284.819	294.583	222.891	230.005	123.148	118.468	150.626	127.469	107.224	105.410	104.311	141.339	134.344	124.365	195.580	188.632	39.788
84.000	297.209	301.793	269.492	291.145	311.485	313.586	315.233	276.606	284.651	294.893	222.724	229.432	123.100	118.373	150.172	127.397	107.200	105.481	104.359	141.506	134.368	124.126	195.580	189.611	41.819
85.000	297.137	301.267	269.062	291.766	312.034	313.682	314.995	276.463	284.747	295.108	222.724	228.191	122.646	118.134	149.934	127.230	107.176	105.505	104.359	141.387	134.273	124.007	195.532	190.399	41.819
86.000	297.257	301.840	269.492	291.312	311.461	313.777	315.186	276.606	284.651	295.418	222.748	227.355	122.408	117.824	149.647	127.230	107.248	105.434	104.264	141.363	134.249	123.625	195.580	191.497	40.149
87.000	298.021	302.007	269.969	291.527	312.010	313.682	315.019	276.415	284.771	295.371	222.485	226.305	121.930	117.275	149.265	127.230	107.129	105.314	104.264	141.411	134.368	123.362	195.508	192.643	39.247
88.000	298.068	302.485	270.495	292.196	311.891	313.610	314.780	276.582	284.819	295.872	223.082	225.207	121.309	117.227	148.859	126.920	107.248	105.410	104.359	141.315	134.153	123.004	195.532	193.765	39.337
89.000	298.546	302.366	271.068	291.909	312.082	313.729	315.066	276.702	284.484	295.872	223.130	224.061	121.166	116.917	148.406	127.111	107.176	105.362	104.168	141.172	134.368	122.981	195.413	194.768	40.871
