-----------------------------------------------------
BloodHound 307 VOC Analyser V2017.1
RoboScientific Ltd 
Espace North
Wisbech Road
Littleport
Cambridgeshire, UK
CB6 1RA 
-----------------------------------------------------
Date = 24/03/2022
Time = 12:08:04
Data is protected by RoboScientific Limited
-----------------------------------------------------
Name of the experiment = "50a_Day 28"
-----------------------------------------------------
Repeat No. = 3/4
-----------------------------------------------------
Experimental Time (in sec) and Flow Profile :
-----------------------------------------------------
Baseline = 2.00
Absorb = 4.00
Pause = 1.00
Desorb = 5.00
Flush = 20.00
Wait = 5.00
Higher Flow (V) = 4.00
Medium Flow (V) = 3.00
Low Flow (V) = 1.00
-----------------------------------------------------
Total Profile Time = 37 in sec
-----------------------------------------------------
Acquired data point per second = 4
--------------------------------------------------
Total data point stored  = 128
-----------------------------------------------------
Acquired sensor responses from 24 sensors
-----------------------------------------------------

Data Points	 Sen-1	 Sen-2	 Sen-3	 Sen-4	 Sen-5	 Sen-6	 Sen-7	 Sen-8	 Sen-9	 Sen-10	 Sen-11	 Sen-12	 Sen-13	 Sen-14	 Sen-15	 Sen-16	 Sen-17	 Sen-18	 Sen-19	 Sen-20	 Sen-21	 Sen-22	 Sen-23	 Sen-24	Humidity (%r.h.)
0.000	306.615	306.902	278.612	293.700	312.655	314.350	315.400	277.943	284.771	302.366	223.201	230.530	112.858	112.763	140.504	125.272	106.412	104.884	104.001	140.098	134.201	116.511	195.269	188.728	42.360
1.000	306.949	306.854	279.208	293.365	312.321	314.207	315.759	278.110	284.675	302.222	223.344	230.674	112.715	112.619	140.480	125.368	106.341	104.837	103.810	139.955	134.249	116.535	195.198	188.728	40.691
2.000	306.543	306.734	279.017	293.341	312.560	314.111	315.233	277.967	285.129	302.533	222.867	230.626	112.667	112.596	140.432	125.296	106.197	104.861	104.025	140.050	134.320	116.511	195.222	188.513	39.157
3.000	306.902	306.878	279.065	293.628	312.822	314.374	315.687	277.895	284.842	302.461	223.440	230.865	112.524	112.715	140.313	125.392	106.412	104.861	103.929	140.146	134.153	116.320	195.174	188.561	39.157
4.000	307.045	306.591	278.803	293.150	312.536	314.302	315.329	277.943	285.057	302.915	223.177	230.888	112.715	112.691	140.289	125.177	106.412	104.884	103.977	140.026	134.225	116.129	195.150	188.513	40.781
5.000	306.830	306.591	278.874	293.580	312.560	314.350	315.448	277.561	284.580	302.676	223.106	231.199	112.596	112.715	140.265	125.344	106.293	104.837	103.906	140.146	134.153	116.559	195.269	188.251	42.360
6.000	307.045	306.639	278.898	293.628	312.918	314.231	315.377	277.895	284.962	302.724	223.273	231.461	112.476	112.548	140.169	125.320	106.197	104.884	104.049	140.074	134.273	116.177	195.269	187.821	41.548
7.000	307.116	307.164	279.399	293.867	312.297	314.040	315.615	277.728	284.795	302.771	223.344	232.345	112.739	112.381	140.026	125.248	106.412	104.861	104.001	140.122	134.177	116.200	195.222	187.128	39.518
8.000	307.140	307.498	279.208	293.795	312.345	314.016	315.305	277.871	285.081	302.795	223.010	232.822	112.428	112.381	139.883	125.248	106.245	104.837	104.001	140.026	134.225	115.962	195.174	186.269	38.976
9.000	307.522	307.331	279.757	293.747	312.583	314.183	315.496	278.015	284.747	303.082	223.106	233.586	112.190	112.214	139.835	125.105	106.197	104.693	104.025	140.050	134.273	116.009	195.174	185.577	39.382
10.000	305.326	305.947	279.590	293.795	312.679	314.040	315.233	277.728	284.747	302.413	222.628	247.815	113.479	113.312	139.787	125.272	106.245	104.908	104.001	140.098	133.962	116.535	195.413	168.818	42.315
11.000	281.047	288.901	277.084	292.649	311.891	313.753	315.066	277.418	285.559	292.649	220.933	286.299	139.525	131.503	142.008	126.394	106.747	105.123	104.073	140.384	133.198	127.134	197.084	132.363	36.720
12.000	238.146	243.780	270.972	289.593	311.294	312.798	314.828	275.627	286.036	263.977	219.644	301.554	181.876	176.720	148.286	128.949	107.391	105.911	104.311	142.223	132.745	155.878	198.612	116.177	40.149
13.000	239.555	254.356	262.091	284.532	310.339	312.130	314.851	272.882	286.370	241.464	218.427	309.599	178.677	163.016	157.191	134.368	108.442	106.747	104.550	145.254	132.697	178.009	199.734	108.274	49.940
14.000	264.096	279.614	252.398	276.487	309.193	310.841	313.992	269.062	285.630	223.368	217.901	314.493	153.873	138.546	166.502	142.151	109.444	107.773	104.980	148.788	133.007	194.672	200.689	102.951	48.587
15.000	283.434	295.729	243.828	266.555	307.785	309.886	313.849	264.860	285.392	228.477	216.875	318.432	134.989	122.861	176.171	152.058	111.044	108.991	105.338	152.393	133.461	189.683	201.381	100.253	37.487
16.000	297.615	306.185	238.098	257.675	305.899	308.501	313.252	260.635	284.437	242.324	216.278	321.106	121.142	113.121	184.359	161.154	113.001	110.351	106.006	157.096	134.225	176.147	202.073	97.985	28.915
17.000	308.167	313.252	235.759	250.154	303.774	306.472	312.082	255.765	283.959	255.836	216.254	322.419	111.235	106.436	186.627	168.865	114.744	112.142	106.675	162.205	134.989	162.921	202.503	96.720	35.006
18.000	315.448	317.883	236.952	242.992	301.745	304.514	311.676	250.202	282.527	267.391	215.180	324.186	103.118	101.327	182.974	175.980	116.988	114.028	107.439	167.910	136.087	150.721	202.789	95.431	48.406
19.000	320.605	320.915	240.414	235.997	299.668	302.580	310.602	244.449	282.264	277.704	215.681	324.902	98.892	97.770	176.815	182.211	119.018	116.224	108.227	173.473	136.946	140.217	203.362	95.001	52.963
20.000	323.541	323.852	243.900	229.408	297.352	299.763	309.623	238.433	280.856	286.466	215.347	326.144	95.120	95.383	170.417	188.967	121.715	118.850	109.397	179.584	137.949	131.265	203.386	93.688	42.856
21.000	326.955	325.881	247.672	222.891	294.153	296.349	308.000	232.202	279.757	292.792	215.371	326.382	92.542	93.258	165.595	195.675	124.389	122.264	110.757	185.983	139.047	125.225	203.816	93.616	30.268
22.000	327.457	327.027	251.157	217.925	291.384	292.792	306.615	226.400	278.659	298.522	215.156	327.337	90.155	91.897	160.820	201.333	127.779	125.941	112.548	192.381	140.098	120.235	203.553	92.279	30.358
23.000	330.560	328.674	254.571	220.002	288.328	289.116	304.872	220.647	277.155	302.055	214.989	327.839	89.582	90.465	156.642	198.970	130.930	130.023	114.171	197.943	141.435	116.415	204.102	91.945	42.902
24.000	331.252	329.175	258.033	225.493	284.747	284.962	302.986	218.498	276.367	304.968	215.084	327.719	88.603	88.746	153.204	193.049	134.559	134.034	116.320	200.736	142.772	112.978	203.888	92.804	53.640
25.000	331.611	329.772	260.062	229.695	280.927	279.996	300.408	220.313	274.959	306.925	215.108	328.459	87.767	89.200	150.077	189.158	138.116	138.283	118.421	198.253	143.774	110.853	204.126	91.635	48.496
26.000	332.470	330.298	261.423	229.814	279.519	278.421	299.405	220.193	274.863	307.379	215.132	328.579	87.075	89.176	148.979	189.134	139.883	140.289	119.853	198.349	144.299	111.283	203.673	92.208	34.825
27.000	331.969	329.939	262.043	229.074	280.020	278.349	298.785	220.336	274.935	307.475	215.275	328.626	87.481	88.865	148.907	190.256	139.596	140.122	120.187	198.612	144.061	111.497	204.007	91.181	28.193
28.000	331.539	330.990	262.354	227.904	279.805	278.444	298.999	219.262	275.245	306.424	214.917	328.889	87.242	88.937	148.477	190.972	138.976	140.002	120.474	199.041	143.965	112.118	204.007	91.444	36.810
29.000	332.327	331.563	261.948	226.711	280.784	278.803	298.928	219.644	275.198	306.233	215.275	328.221	88.149	88.412	148.501	192.070	138.737	139.907	120.545	199.352	143.918	112.476	204.198	91.993	50.436
30.000	332.971	330.441	263.165	229.671	279.280	276.988	297.519	221.172	274.672	308.167	214.869	328.340	86.645	87.481	147.976	188.489	139.429	141.077	121.262	197.179	144.323	110.686	204.007	91.802	52.377
31.000	332.231	331.348	264.837	234.637	275.818	273.837	296.039	222.581	274.195	308.262	215.132	329.032	87.457	88.006	146.376	184.073	143.273	144.658	123.339	195.747	145.183	110.566	203.840	92.637	40.871
32.000	330.823	331.014	266.030	236.379	273.121	272.022	294.893	221.291	274.553	305.899	215.275	326.931	89.104	88.436	145.159	182.211	145.923	146.854	124.485	197.060	144.156	113.288	204.055	93.019	29.276
33.000	328.698	330.107	266.746	235.496	273.479	272.524	294.989	220.456	276.129	299.525	215.204	326.263	90.680	89.128	144.347	182.903	145.374	145.971	124.270	198.158	142.390	119.041	203.243	94.141	31.802
34.000	325.833	329.152	266.961	233.156	275.365	274.434	295.800	226.544	278.492	291.241	215.848	324.663	93.306	90.155	144.490	185.457	143.249	144.180	123.362	191.832	140.623	127.516	202.909	95.049	45.067
35.000	322.634	328.674	266.197	229.002	278.373	276.702	297.042	233.204	279.638	280.307	216.923	322.372	96.242	91.468	145.183	189.205	140.742	141.721	122.121	184.598	139.071	138.069	201.882	97.579	53.369
36.000	319.769	326.382	265.577	223.917	281.070	279.757	298.641	239.984	281.118	268.107	217.519	320.820	99.847	93.043	146.042	194.887	137.806	138.856	120.450	177.746	137.734	151.271	200.951	99.728	46.060
37.000	315.353	324.281	264.478	218.212	284.150	282.312	300.289	244.902	281.787	253.401	218.021	317.048	104.168	95.574	147.260	200.689	134.702	136.087	118.803	171.993	136.827	166.359	200.211	101.972	33.833
38.000	308.119	321.393	262.688	220.217	286.633	285.081	301.435	249.772	283.243	238.194	218.570	314.732	110.853	97.842	149.194	198.444	131.861	133.365	117.490	167.051	135.896	181.375	199.877	105.410	29.862
39.000	301.100	318.218	260.420	227.618	289.522	288.400	303.082	253.521	283.243	222.581	218.809	310.936	117.872	101.112	150.960	190.877	129.402	130.763	116.153	163.255	135.419	195.627	199.304	107.678	38.841
40.000	290.882	314.446	258.224	235.305	291.933	290.811	304.299	256.290	283.720	224.514	219.692	307.833	128.734	104.407	154.016	183.547	126.920	128.089	114.720	160.151	134.941	195.604	198.850	111.020	49.850
41.000	278.134	310.554	255.788	242.754	294.344	293.127	305.708	259.107	284.484	235.401	219.644	304.586	141.960	108.680	157.143	176.027	124.819	125.774	113.264	157.549	134.774	184.431	198.826	114.028	49.128
42.000	262.807	305.660	252.780	249.343	296.326	295.538	307.188	261.279	284.293	245.260	220.313	301.315	156.952	113.932	160.844	169.200	122.622	123.506	112.237	155.305	134.559	174.046	198.349	116.941	39.157
43.000	246.573	299.334	249.223	254.977	297.949	297.710	308.477	263.237	284.413	253.067	220.217	297.949	172.804	120.211	165.069	163.518	120.617	121.023	110.924	153.371	134.607	166.024	198.110	120.307	31.261
44.000	232.798	291.193	245.929	260.157	299.644	300.121	308.955	264.502	284.484	259.370	220.957	294.941	185.983	127.803	168.889	158.218	119.089	119.041	110.113	151.987	134.344	159.316	197.872	123.339	35.186
45.000	223.297	281.238	242.395	264.693	300.981	301.482	309.695	265.935	284.365	264.574	220.862	292.005	196.439	137.328	173.162	154.040	117.537	117.108	109.158	150.865	134.440	154.613	197.513	126.060	45.473
46.000	221.339	269.062	239.459	268.250	302.580	303.082	310.554	267.248	284.699	268.418	221.005	289.665	198.970	149.647	177.603	150.578	116.391	115.604	108.776	149.838	134.344	150.602	197.537	128.519	49.173
47.000	227.045	256.290	236.236	271.187	303.440	304.514	310.984	267.892	284.461	271.712	220.933	287.039	192.667	163.398	181.829	147.308	115.436	114.338	107.988	148.883	134.297	147.069	197.322	131.169	43.082
48.000	234.302	242.109	233.897	273.694	304.156	305.565	311.628	268.847	284.580	274.649	221.649	284.962	185.433	177.722	185.195	144.849	114.482	113.049	107.511	148.072	134.153	144.156	197.179	133.174	34.961
49.000	241.870	228.525	232.560	275.818	305.135	307.116	312.106	269.850	284.866	276.869	221.435	282.670	177.388	190.662	187.845	142.724	113.622	111.736	107.105	147.212	134.177	141.936	196.893	134.583	33.381
50.000	249.414	224.228	232.727	278.158	305.899	308.071	312.273	270.280	284.651	279.590	221.626	280.689	169.558	195.818	188.967	140.360	112.810	110.542	106.508	146.639	134.297	139.214	196.845	137.209	40.465
51.000	255.788	234.708	233.682	280.068	306.758	309.193	312.727	270.877	284.651	281.524	221.697	277.442	163.756	185.051	187.152	138.713	112.094	109.707	106.508	146.090	134.392	137.448	196.726	139.740	46.962
52.000	261.088	245.523	235.950	281.643	307.140	309.766	312.942	271.545	284.365	283.219	221.697	275.818	158.480	174.141	184.765	137.042	111.521	109.062	106.078	145.613	134.416	135.896	196.630	142.151	45.383
53.000	265.171	255.335	238.576	283.052	307.737	310.315	313.276	272.166	284.842	284.484	222.031	273.168	153.992	164.305	181.972	135.801	111.044	108.322	105.887	145.398	134.368	134.368	196.558	144.443	39.157
54.000	268.776	262.688	241.321	283.744	308.047	310.697	313.395	272.404	284.651	285.750	221.912	271.306	150.721	156.236	178.916	134.917	110.662	107.964	105.601	144.825	134.273	133.509	196.535	146.305	34.194
55.000	271.593	269.468	243.828	284.532	308.310	311.175	313.896	273.073	284.819	286.347	221.888	269.731	147.666	149.814	176.242	133.867	110.137	107.367	105.505	144.467	134.344	132.554	196.630	147.928	37.397
56.000	274.267	274.481	246.167	285.224	308.788	311.581	313.896	273.240	285.033	287.636	222.008	267.677	145.159	144.849	173.926	133.318	109.802	107.343	105.386	144.276	134.297	131.885	196.511	149.743	44.300
57.000	276.463	278.850	248.674	286.514	309.217	311.796	313.825	273.526	284.604	287.803	221.888	265.529	142.772	140.742	171.467	132.673	109.635	107.105	105.290	144.013	134.368	131.097	196.535	151.676	46.015
58.000	279.041	281.906	250.417	286.943	309.456	311.987	314.207	273.932	284.675	289.020	221.984	263.858	140.862	137.305	169.128	132.052	109.373	106.818	105.004	143.846	134.464	130.525	196.344	153.658	41.728
59.000	280.617	284.556	252.136	287.325	309.933	312.321	313.968	274.028	284.890	289.307	222.008	261.924	138.856	134.583	167.313	131.742	109.086	106.675	105.052	143.607	134.344	129.904	196.367	155.806	36.630
60.000	282.503	287.158	253.831	287.851	309.838	312.273	314.278	274.290	284.556	289.641	222.103	260.157	137.305	132.243	165.547	131.169	108.943	106.484	104.932	143.392	134.392	129.379	196.272	157.740	36.314
61.000	283.911	288.805	255.096	288.018	310.101	312.607	314.637	274.696	284.628	289.999	222.151	257.889	135.920	130.620	163.852	130.835	108.656	106.341	104.884	143.345	134.440	128.925	196.153	159.817	41.232
62.000	285.296	290.500	256.409	288.519	310.339	312.774	314.637	274.696	284.795	290.572	222.485	255.717	134.846	129.020	162.610	130.453	108.585	106.436	104.956	143.082	134.368	128.448	196.248	161.655	44.977
63.000	286.132	291.861	258.104	288.543	310.387	312.822	314.732	275.126	284.938	290.739	222.366	254.093	133.700	127.779	161.441	130.214	108.609	106.365	104.861	142.915	134.249	128.257	196.057	163.732	43.037
64.000	286.896	293.031	259.083	288.567	310.292	312.846	314.517	274.887	284.532	290.882	222.270	252.207	132.840	126.514	160.247	129.904	108.370	106.054	104.741	142.867	134.344	127.875	196.009	165.762	39.292
65.000	287.922	293.962	260.372	288.877	310.817	312.774	314.828	275.341	284.914	291.623	222.270	250.369	131.742	125.368	159.149	129.522	108.131	106.102	104.741	142.652	134.344	127.493	196.009	167.361	36.946
66.000	288.805	295.036	261.256	289.211	310.650	313.061	314.493	275.269	284.866	291.933	222.485	248.268	130.716	124.604	158.242	129.474	108.227	105.887	104.598	142.461	134.249	127.206	195.914	169.605	38.976
67.000	289.760	296.111	261.852	289.856	310.865	313.109	314.732	275.341	284.699	291.909	222.485	246.430	130.214	123.697	157.287	129.211	107.916	105.839	104.717	142.390	134.297	126.920	195.914	171.467	43.578
68.000	290.214	297.018	262.521	289.999	311.008	313.300	314.851	275.389	284.675	292.172	222.533	244.258	129.140	123.076	156.427	129.068	107.916	105.696	104.479	142.318	134.416	126.943	195.890	173.544	43.578
69.000	291.384	297.018	263.882	290.023	311.175	313.467	314.565	275.293	284.461	292.506	222.342	242.921	128.495	122.408	155.687	128.949	107.701	105.696	104.526	142.294	134.392	126.538	195.938	175.216	40.555
70.000	291.957	297.949	264.287	290.071	311.175	313.133	314.780	275.484	284.771	293.031	222.390	240.963	127.707	121.811	155.066	128.639	107.725	105.768	104.526	142.079	134.249	126.275	195.914	177.102	38.209
71.000	292.434	298.785	264.932	290.524	311.056	313.037	314.613	275.627	284.484	293.198	222.581	239.292	127.230	121.166	154.207	128.567	107.845	105.720	104.550	142.223	134.249	125.750	195.818	178.964	38.705
72.000	293.079	298.713	265.505	290.310	311.223	313.300	314.541	275.723	284.723	293.485	222.222	237.692	126.943	120.689	153.610	128.495	107.654	105.744	104.622	142.318	134.464	125.774	195.818	180.325	41.638
73.000	293.914	298.904	266.293	290.548	311.438	313.491	314.756	275.818	284.699	293.341	222.700	236.284	126.108	120.354	153.180	128.328	107.534	105.601	104.383	142.032	134.488	125.439	195.747	181.685	43.488
74.000	294.177	299.358	266.914	290.668	311.199	313.467	314.995	275.794	284.461	293.843	222.461	234.923	125.607	120.068	152.655	128.209	107.487	105.529	104.288	141.984	134.320	125.344	195.771	183.285	41.458
75.000	294.726	299.668	267.128	291.241	311.223	313.825	314.971	275.914	284.508	294.034	222.652	233.706	125.081	119.543	152.130	127.970	107.415	105.529	104.431	141.888	134.440	124.986	195.842	184.526	39.292
76.000	294.559	299.907	267.463	291.026	311.247	313.180	314.851	275.890	284.914	294.105	222.604	232.584	124.699	119.352	151.653	128.018	107.415	105.457	104.383	141.745	134.416	124.914	195.604	185.672	39.157
77.000	295.538	300.503	267.964	290.978	311.628	313.682	315.138	275.985	284.580	294.320	222.533	231.676	124.294	119.041	151.175	127.898	107.558	105.505	104.311	141.697	134.249	124.604	195.818	187.057	40.239
78.000	295.944	300.814	268.346	291.551	311.843	313.849	315.090	276.153	284.890	294.535	222.724	230.029	123.864	118.850	150.793	127.970	107.367	105.434	104.240	141.793	134.392	124.485	195.747	188.203	42.180
79.000	296.302	300.623	268.728	291.026	311.700	313.896	315.042	276.296	284.914	294.607	222.772	229.170	123.506	118.540	150.411	127.564	107.320	105.338	104.359	141.673	134.297	124.317	195.580	189.229	41.819
80.000	296.564	301.029	269.301	291.336	311.414	313.825	315.186	276.391	284.938	295.013	222.628	228.239	122.981	118.230	150.053	127.707	107.439	105.529	104.288	141.602	134.225	124.126	195.651	190.208	39.879
81.000	296.946	301.506	269.611	291.312	311.724	313.896	314.828	276.224	284.771	295.204	222.581	227.498	122.766	117.919	149.695	127.612	107.200	105.386	104.264	141.650	134.392	124.126	195.604	191.235	39.247
82.000	296.540	301.984	269.898	291.288	311.366	313.395	314.708	276.248	284.890	295.657	222.772	226.591	122.551	117.681	149.408	127.349	107.272	105.410	104.359	141.578	134.440	123.697	195.508	192.023	39.472
83.000	297.424	302.103	270.160	291.742	311.605	313.538	314.947	276.511	285.010	295.347	222.676	225.756	122.312	117.633	149.026	127.445	107.272	105.338	104.240	141.554	134.225	123.673	195.627	192.834	41.232
84.000	297.663	302.127	270.709	291.575	311.772	313.825	315.114	276.153	284.628	295.705	222.819	225.230	121.954	117.394	148.835	127.158	107.224	105.219	104.216	141.387	134.225	123.506	195.556	193.622	41.458
85.000	297.997	302.652	271.282	291.790	311.796	313.825	315.019	276.248	284.604	295.562	222.772	224.896	121.429	117.227	148.549	127.230	107.152	105.410	104.192	141.387	134.344	123.291	195.627	194.171	40.330
86.000	298.403	302.461	271.020	291.408	311.939	313.944	315.162	276.272	284.508	296.063	222.413	223.894	121.405	117.108	148.143	127.134	107.152	105.266	104.288	141.315	134.416	123.171	195.627	194.887	39.382
87.000	298.904	302.437	271.831	291.408	311.772	313.777	315.090	276.558	284.842	295.920	222.724	223.679	121.166	116.941	147.952	127.039	106.985	105.219	104.288	141.435	134.440	123.028	195.723	195.460	39.157
88.000	298.856	302.700	271.521	291.646	311.867	313.873	315.114	276.511	284.675	296.517	222.867	222.986	120.880	116.750	147.690	127.063	107.081	105.243	104.311	141.482	134.273	122.742	195.627	195.890	40.420
89.000	299.214	303.058	271.712	292.100	311.915	313.896	315.138	276.558	284.508	296.540	222.700	222.724	120.235	116.630	147.451	127.087	107.033	105.290	104.216	141.339	134.297	122.622	195.627	196.606	40.961
