-----------------------------------------------------
BloodHound 307 VOC Analyser V2017.1
RoboScientific Ltd 
Espace North
Wisbech Road
Littleport
Cambridgeshire, UK
CB6 1RA 
-----------------------------------------------------
Date = 31/03/2022
Time = 12:17:26
Data is protected by RoboScientific Limited
-----------------------------------------------------
Name of the experiment = "36b_Day 38"
-----------------------------------------------------
Repeat No. = 4/4
-----------------------------------------------------
Experimental Time (in sec) and Flow Profile :
-----------------------------------------------------
Baseline = 2.00
Absorb = 4.00
Pause = 1.00
Desorb = 5.00
Flush = 20.00
Wait = 5.00
Higher Flow (V) = 4.00
Medium Flow (V) = 3.00
Low Flow (V) = 1.00
-----------------------------------------------------
Total Profile Time = 37 in sec
-----------------------------------------------------
Acquired data point per second = 4
--------------------------------------------------
Total data point stored  = 128
-----------------------------------------------------
Acquired sensor responses from 24 sensors
-----------------------------------------------------

Data Points	 Sen-1	 Sen-2	 Sen-3	 Sen-4	 Sen-5	 Sen-6	 Sen-7	 Sen-8	 Sen-9	 Sen-10	 Sen-11	 Sen-12	 Sen-13	 Sen-14	 Sen-15	 Sen-16	 Sen-17	 Sen-18	 Sen-19	 Sen-20	 Sen-21	 Sen-22	 Sen-23	 Sen-24	Humidity (%r.h.)
0.000	313.204	309.862	290.811	303.679	314.756	315.568	315.687	296.421	286.609	311.223	228.430	280.736	106.006	109.802	128.519	114.887	104.144	103.333	103.762	122.646	132.458	107.511	189.778	138.188	45.970
1.000	313.729	309.337	291.026	303.917	314.613	315.973	316.093	296.708	286.848	311.605	228.501	281.333	106.054	109.755	128.400	114.983	104.216	103.476	103.619	122.312	132.291	107.487	189.707	138.116	37.713
2.000	313.658	309.790	290.811	304.156	314.947	315.854	315.735	296.540	286.943	311.461	228.835	281.333	106.126	109.850	128.376	115.150	104.216	103.476	103.500	122.264	132.220	107.582	189.707	137.901	34.013
3.000	313.538	309.504	290.978	303.679	314.756	315.782	315.806	296.875	286.681	311.461	228.764	281.429	106.054	109.635	128.352	115.150	104.335	103.452	103.571	122.264	132.243	107.534	189.659	137.830	41.187
4.000	313.514	309.575	290.859	303.846	314.756	315.591	315.782	296.517	286.394	311.223	228.430	281.667	105.863	109.588	128.257	114.887	104.288	103.524	103.667	122.360	132.339	107.487	189.611	137.710	48.135
5.000	313.944	310.029	291.479	303.679	315.042	315.663	315.711	296.540	286.728	311.342	228.573	281.572	106.078	109.707	128.161	115.007	104.216	103.404	103.595	122.408	132.434	107.558	189.731	137.663	43.217
6.000	313.133	309.862	291.026	303.631	314.828	315.544	315.782	296.564	286.824	311.103	228.692	281.548	105.863	109.850	128.137	115.007	104.192	103.333	103.571	122.384	132.315	107.558	189.587	137.758	34.239
7.000	313.419	309.695	290.787	303.631	314.828	315.615	315.496	296.779	286.919	311.438	228.788	281.548	105.839	109.731	128.257	115.007	104.192	103.452	103.524	122.479	132.387	107.606	189.731	137.782	36.449
8.000	313.324	309.981	291.145	304.013	314.732	315.496	315.544	296.445	286.561	311.414	228.430	281.739	106.006	109.516	128.066	114.911	104.216	103.548	103.691	122.312	132.267	107.534	189.707	137.567	45.428
9.000	313.324	309.838	291.264	303.631	314.660	315.448	315.687	296.540	286.824	311.796	228.477	281.620	106.054	109.588	127.994	114.887	104.192	103.548	103.571	122.264	132.148	107.415	189.778	137.376	47.459
10.000	312.178	308.406	290.906	303.512	314.469	315.472	315.639	296.445	287.206	311.056	228.191	279.065	106.890	111.306	128.448	115.055	104.216	103.357	103.404	122.431	131.885	108.036	189.874	141.745	39.427
11.000	297.997	272.548	287.373	302.389	314.255	315.615	315.759	295.299	288.089	306.472	225.899	274.386	121.524	146.424	131.647	116.272	104.526	103.691	103.715	123.792	131.002	112.524	192.023	144.371	42.225
12.000	274.410	254.428	278.444	299.525	314.087	315.329	315.830	292.219	288.304	292.363	224.276	297.233	144.467	162.849	140.504	119.065	104.861	103.715	103.667	126.824	130.477	126.203	194.004	120.689	41.728
13.000	243.088	283.601	264.359	294.201	313.180	314.660	315.233	287.660	288.471	278.492	222.915	309.981	174.977	135.992	154.255	124.604	105.481	104.097	103.858	130.716	130.286	139.620	195.222	110.232	32.073
14.000	243.183	300.527	249.462	287.158	312.488	314.231	315.210	283.649	288.614	265.577	221.864	316.284	176.863	118.683	170.322	132.076	106.054	104.622	104.216	135.251	130.644	154.374	196.367	103.189	35.592
15.000	267.749	309.981	236.451	278.588	311.867	313.491	314.756	278.946	288.018	247.290	221.339	321.488	150.889	108.298	184.574	140.384	106.770	105.147	104.479	139.501	130.716	171.396	197.251	98.104	49.985
16.000	287.039	316.499	232.655	269.659	311.151	312.631	314.016	273.741	287.278	227.618	219.978	323.995	131.217	101.948	187.773	149.098	107.654	105.983	104.884	144.729	131.647	190.662	198.039	95.669	51.023
17.000	300.026	321.154	240.724	260.062	309.695	311.461	313.514	267.654	286.538	234.064	219.596	326.215	118.516	97.699	176.242	158.170	108.919	107.129	105.434	150.602	132.243	184.646	198.874	93.783	36.043
18.000	309.742	324.067	249.940	251.826	308.525	309.862	312.679	262.163	285.320	252.446	219.334	327.815	109.778	94.810	165.929	167.123	110.041	108.919	106.197	157.573	133.103	166.812	199.185	92.470	29.005
19.000	316.141	326.573	258.200	242.992	306.878	307.475	311.796	255.478	284.651	267.439	219.119	328.340	103.404	92.757	156.093	175.932	111.426	111.115	107.367	163.828	134.106	151.724	199.280	91.778	41.097
20.000	320.820	327.528	264.813	234.684	305.493	304.610	310.124	248.937	283.601	277.585	218.689	328.889	98.319	91.515	147.976	184.717	113.360	114.100	108.919	171.109	135.132	140.074	199.853	91.253	54.046
21.000	323.732	328.794	271.139	226.496	303.726	301.435	308.191	241.632	282.694	286.800	218.641	330.250	95.502	90.226	141.602	192.118	114.649	116.964	110.495	177.651	136.350	131.599	200.187	89.725	46.195
22.000	326.096	329.677	276.535	220.408	301.864	297.567	305.970	235.401	281.166	293.246	218.307	330.799	93.019	89.343	136.588	198.850	116.773	120.832	113.025	184.455	137.328	125.630	200.259	89.247	29.952
23.000	327.934	331.205	279.519	221.363	300.145	294.416	303.368	229.743	280.139	298.092	218.450	331.873	91.253	87.791	132.602	197.346	118.970	124.604	115.389	190.304	138.451	120.307	200.163	88.388	32.614
24.000	329.390	331.825	282.742	227.403	297.997	290.286	300.575	225.039	278.922	301.864	218.570	331.181	90.035	87.337	129.546	190.996	121.453	128.662	118.588	195.150	139.740	116.415	200.307	89.223	48.948
25.000	330.799	331.682	285.583	231.461	294.965	286.132	296.946	222.581	277.871	304.634	218.068	331.061	88.627	86.621	126.848	186.985	123.601	132.052	121.357	196.893	141.077	113.741	200.450	88.555	53.505
26.000	331.157	332.088	286.323	231.867	293.461	284.795	295.418	222.461	277.633	305.493	218.570	332.184	88.650	86.788	126.156	186.914	125.129	133.962	123.864	196.797	141.482	113.718	200.665	89.725	38.570
27.000	331.252	331.897	287.636	230.912	293.891	285.033	294.440	222.819	277.824	304.681	218.116	331.515	88.770	87.624	125.487	188.036	125.368	133.628	124.294	196.821	141.363	114.123	200.283	88.603	28.193
28.000	330.536	332.040	287.158	228.740	293.509	285.392	294.678	223.106	277.824	303.631	218.427	331.802	88.292	87.457	125.344	189.301	125.439	133.270	124.628	196.296	141.053	114.625	200.498	88.006	38.751
29.000	332.016	332.088	287.325	228.071	293.723	285.678	294.344	223.894	278.421	303.870	218.236	331.682	87.982	87.337	125.535	190.805	125.034	132.960	124.628	196.129	140.838	114.625	200.354	89.438	53.865
30.000	331.587	332.947	287.707	231.485	292.697	284.222	293.127	223.130	277.609	305.994	218.331	331.467	87.576	87.505	125.034	186.484	126.060	134.177	125.654	196.511	141.124	112.882	200.163	88.650	48.541
31.000	330.345	332.542	289.331	235.066	291.097	281.357	290.978	223.870	277.298	304.992	218.212	331.443	89.486	86.597	124.055	183.715	128.042	137.376	128.042	196.057	141.363	114.410	200.641	89.176	32.208
32.000	327.457	332.327	290.142	234.589	290.310	281.739	291.455	231.318	280.044	296.922	218.880	329.844	92.399	88.030	123.219	183.762	128.280	136.469	127.684	188.680	139.238	121.429	199.853	91.420	30.133
33.000	322.109	331.109	289.378	231.008	291.766	284.532	293.747	241.321	281.978	283.983	219.787	327.146	96.075	89.271	123.124	187.105	126.967	133.962	125.392	179.011	136.923	135.395	198.612	92.685	45.518
34.000	316.403	329.128	288.829	223.774	293.843	288.018	296.588	250.178	283.482	265.099	220.742	322.157	102.330	89.892	124.532	194.028	124.914	130.525	122.527	169.701	135.037	153.682	197.299	97.245	53.595
35.000	309.241	327.337	287.707	219.071	296.182	291.551	299.501	257.507	285.224	243.804	221.721	318.838	111.092	91.754	126.490	200.044	122.575	127.421	119.758	161.990	133.700	176.815	196.654	101.829	42.089
36.000	297.209	325.021	285.224	227.164	298.235	294.893	301.793	262.974	285.965	222.222	222.270	312.345	122.455	94.022	128.973	191.044	120.426	123.912	117.036	155.854	132.936	196.869	195.842	107.869	30.584
37.000	278.301	322.252	281.882	237.740	300.360	297.854	304.204	268.059	286.418	241.942	223.082	305.612	140.886	97.508	132.243	180.468	118.445	120.641	114.482	151.056	132.387	176.433	195.102	113.670	35.818
38.000	251.253	318.456	277.919	247.528	302.485	301.220	306.448	271.831	286.919	258.176	223.870	298.021	166.693	100.659	136.708	170.799	116.439	118.015	112.715	147.212	132.076	161.655	194.672	120.999	48.361
39.000	225.517	313.992	272.834	257.054	304.037	303.941	308.215	274.887	286.919	269.683	224.156	290.930	194.840	106.054	141.721	161.870	114.792	114.864	110.972	143.870	131.909	149.432	194.171	128.782	47.865
40.000	237.000	307.307	267.176	264.025	305.374	306.066	309.719	277.107	287.063	277.680	224.467	283.004	182.712	111.903	148.191	154.374	113.169	112.237	109.349	141.196	131.885	141.387	193.622	136.493	38.209
41.000	250.584	299.477	260.468	270.208	306.639	308.644	310.960	279.304	287.087	283.338	224.849	275.556	168.221	119.901	155.305	147.976	111.832	110.256	108.155	138.880	131.861	135.347	193.336	144.013	34.013
42.000	262.234	289.116	252.828	275.341	307.904	310.124	311.939	281.333	287.301	288.089	225.207	268.131	156.881	129.546	163.064	142.819	110.853	108.609	107.367	136.970	131.838	130.811	193.168	150.554	40.871
43.000	272.595	276.773	244.783	280.044	308.764	311.103	312.416	282.789	287.254	291.097	225.660	261.112	148.119	141.888	171.372	139.167	109.969	107.415	106.460	135.442	131.790	127.875	192.858	157.645	45.789
44.000	279.853	264.120	237.764	283.458	309.766	312.345	313.300	284.341	287.230	293.891	225.708	254.452	139.764	155.639	179.417	135.562	109.229	106.579	105.911	134.153	131.861	125.248	192.452	164.496	42.360
45.000	285.296	248.555	231.199	286.084	310.315	312.751	313.395	285.320	286.991	295.538	225.947	247.743	133.915	170.895	187.009	132.578	108.370	105.935	105.481	132.912	132.005	123.553	192.285	171.658	38.164
46.000	290.142	232.034	227.451	288.376	310.984	313.443	313.825	286.705	287.039	297.185	226.281	241.321	129.307	186.412	192.381	130.190	107.797	105.362	105.195	131.670	131.957	121.835	191.999	176.958	38.886
47.000	293.103	227.475	228.358	290.286	311.414	314.111	314.350	287.970	287.134	298.546	226.353	235.830	126.347	193.431	192.142	128.471	107.463	105.123	104.789	130.525	132.005	120.665	191.975	182.855	42.631
48.000	295.872	242.157	231.724	291.909	311.676	313.944	314.517	288.567	287.206	299.835	226.209	230.698	123.434	178.295	188.442	126.824	106.914	104.598	104.765	129.737	132.076	119.423	191.808	187.773	42.811
49.000	298.164	254.762	235.568	293.341	312.010	314.422	314.804	289.569	287.063	300.671	226.544	226.782	121.858	164.998	183.786	125.583	106.627	104.526	104.574	129.307	132.124	118.397	191.784	192.619	40.104
50.000	299.572	263.929	240.748	294.225	312.488	314.613	314.780	290.071	286.943	301.530	226.735	221.769	119.614	155.257	178.462	124.103	106.269	104.311	104.574	128.830	132.029	117.394	191.593	197.179	39.202
51.000	300.623	271.402	245.690	295.395	312.512	314.541	314.899	290.453	287.063	302.557	226.711	218.618	118.588	148.119	173.712	123.028	106.078	104.264	104.311	128.089	132.076	116.535	191.473	200.784	40.555
52.000	302.318	277.107	249.510	296.493	313.109	315.019	315.186	291.050	286.967	303.058	227.140	219.310	117.203	142.891	169.653	122.455	106.102	104.097	104.240	127.636	132.100	115.818	191.330	200.593	40.555
53.000	303.321	281.405	252.948	297.591	313.276	315.162	315.090	291.455	286.872	303.846	227.140	221.984	116.272	138.379	166.024	121.524	105.839	103.882	104.192	127.254	132.291	115.436	191.306	197.895	39.833
54.000	303.798	284.771	256.242	297.495	312.989	315.042	315.066	291.790	286.919	303.989	227.021	224.419	115.532	134.583	162.801	120.856	105.577	103.858	104.216	126.800	132.315	114.792	191.282	195.054	41.322
55.000	305.183	287.660	259.083	298.546	313.371	315.066	315.448	292.315	286.919	304.490	227.021	227.212	114.768	131.551	159.913	120.402	105.290	103.882	104.025	126.442	132.220	114.338	191.211	192.476	41.864
56.000	305.398	290.190	261.399	298.594	313.658	315.305	315.448	292.673	286.681	304.801	227.188	229.599	113.980	129.164	157.693	120.020	105.529	104.001	104.025	126.012	132.220	113.861	191.187	189.826	40.149
57.000	305.827	292.219	263.380	299.405	313.825	315.544	315.424	292.816	286.848	305.230	227.116	232.464	113.646	127.158	155.377	119.447	105.362	103.786	103.906	125.774	132.291	113.622	191.044	187.248	39.202
58.000	306.591	293.914	265.195	299.095	313.658	315.472	315.568	293.532	287.278	305.708	227.331	235.138	113.049	125.296	153.419	119.232	105.266	103.762	103.906	125.535	132.196	113.216	191.139	184.813	40.330
59.000	306.615	295.729	267.105	299.668	313.825	315.186	315.329	293.485	286.681	305.780	227.689	236.833	112.476	124.031	151.772	119.018	105.266	103.643	103.834	125.129	132.315	113.240	191.044	182.569	43.488
60.000	307.355	297.018	268.656	300.074	313.944	315.257	315.472	293.532	286.991	306.520	227.570	239.101	112.142	122.646	150.339	118.731	104.956	103.643	103.762	125.034	132.315	112.834	190.972	180.468	42.044
61.000	307.642	297.758	270.638	300.575	313.801	315.472	315.400	293.867	286.872	306.448	227.403	241.250	111.927	121.453	148.788	118.516	105.099	103.548	103.762	125.057	132.291	112.524	190.853	178.534	39.112
62.000	307.952	298.904	271.712	300.408	313.586	315.400	315.615	294.225	286.848	306.663	227.475	242.945	111.688	120.617	147.666	118.421	104.932	103.524	103.834	124.699	132.387	112.309	190.853	176.815	38.525
63.000	308.597	299.453	272.500	300.551	314.493	315.663	315.759	294.201	286.538	306.496	227.594	244.162	111.641	119.829	146.544	118.063	105.052	103.786	103.786	124.604	132.243	112.070	190.805	175.311	42.586
64.000	308.501	300.456	273.670	300.694	313.920	315.472	315.663	294.416	287.015	306.997	227.761	245.547	111.139	119.041	145.493	117.895	105.004	103.619	103.786	124.461	132.411	112.023	190.733	173.831	44.661
65.000	308.811	301.076	274.601	301.220	314.231	315.496	315.615	294.416	286.776	307.116	227.666	246.693	110.996	118.397	144.419	117.704	104.956	103.619	103.762	124.294	132.339	111.879	190.829	172.375	41.052
66.000	308.907	301.435	275.269	301.363	313.896	315.568	315.902	294.583	286.561	307.451	227.618	248.340	110.710	117.967	143.822	117.633	104.813	103.595	103.929	124.294	132.458	111.760	190.686	171.109	37.577
67.000	309.289	302.151	276.415	301.124	313.992	315.735	315.735	294.750	286.752	307.546	227.642	249.677	110.542	117.466	143.082	117.442	104.717	103.595	103.524	124.126	132.482	111.545	190.757	169.581	39.066
68.000	309.647	302.175	276.582	301.649	314.183	315.759	315.902	294.941	286.490	307.498	227.594	251.038	110.351	116.845	142.199	117.322	104.789	103.691	103.786	124.103	132.339	111.259	190.662	168.054	44.165
69.000	309.623	302.986	277.848	301.864	314.135	315.544	315.711	294.798	286.848	307.546	227.713	252.303	110.160	116.511	141.530	117.346	104.765	103.595	103.762	124.007	132.291	111.187	190.638	167.075	43.804
70.000	309.361	303.273	278.540	301.411	313.920	315.544	315.759	294.822	286.466	307.952	227.713	253.425	109.969	116.129	141.005	117.251	104.861	103.619	103.786	123.816	132.267	111.115	190.542	165.953	39.202
71.000	309.456	303.583	279.184	302.055	314.422	315.472	315.400	294.750	286.585	307.904	228.000	254.308	109.969	115.747	140.217	116.988	104.813	103.667	103.882	123.935	132.387	110.924	190.423	165.046	37.126
72.000	309.838	304.156	279.471	301.936	314.278	315.639	315.568	294.917	286.609	307.976	227.737	255.048	109.659	115.508	139.859	117.084	104.813	103.571	103.667	123.792	132.291	110.805	190.542	164.305	41.322
73.000	309.742	304.108	279.925	301.721	314.326	315.687	315.759	295.108	286.561	308.143	227.857	256.194	109.659	115.198	139.334	116.893	104.741	103.571	103.643	123.792	132.267	110.686	190.542	163.064	45.022
74.000	310.196	304.299	279.925	301.817	314.135	315.353	315.615	295.442	287.206	308.453	227.785	257.245	109.229	115.007	138.809	116.773	104.550	103.619	103.810	123.792	132.363	110.710	190.542	161.942	42.495
75.000	310.268	304.896	280.856	302.222	314.326	315.615	315.735	295.204	286.585	308.191	228.167	258.200	109.373	114.816	138.570	116.797	104.622	103.571	103.739	123.625	132.291	110.638	190.351	161.059	37.307
76.000	310.363	305.159	281.285	302.175	314.565	315.353	315.472	295.204	286.776	308.429	227.928	259.083	109.110	114.410	138.069	116.797	104.717	103.476	103.571	123.625	132.291	110.447	190.518	160.414	37.758
77.000	310.650	305.230	281.906	302.007	314.183	315.759	315.711	295.251	286.561	308.429	228.000	259.895	109.182	114.267	137.806	116.773	104.574	103.500	103.595	123.553	132.387	110.423	190.447	159.722	43.669
78.000	310.697	305.278	281.667	301.960	314.159	315.329	315.568	295.586	286.919	308.740	228.143	260.515	109.038	113.932	137.209	116.535	104.550	103.667	103.715	123.458	132.267	110.280	190.375	158.982	45.112
79.000	310.578	305.541	282.288	302.055	314.350	315.568	315.806	295.347	286.561	308.811	227.857	260.611	108.704	114.052	137.161	116.535	104.550	103.452	103.643	123.386	132.554	110.351	190.399	158.385	39.924
80.000	310.602	305.803	282.575	302.294	314.398	315.544	315.639	295.824	286.681	308.740	227.785	261.661	108.800	113.861	136.660	116.535	104.407	103.524	103.619	123.482	132.411	110.160	190.280	157.764	35.863
81.000	310.387	306.209	283.100	302.342	314.422	315.496	315.544	295.681	286.776	308.859	228.024	262.163	108.609	113.646	136.541	116.487	104.598	103.500	103.619	123.291	132.434	109.969	190.328	157.215	39.698
82.000	310.745	305.875	283.147	302.103	314.111	315.400	315.711	295.633	286.848	309.098	228.239	262.664	108.537	113.527	136.183	116.391	104.359	103.380	103.595	123.291	132.458	110.137	190.351	156.547	45.338
83.000	310.888	306.281	283.601	302.915	314.350	315.496	315.854	295.418	286.585	309.050	228.358	263.547	108.704	113.240	135.753	116.391	104.646	103.595	103.500	123.243	132.291	109.946	190.328	156.021	43.894
84.000	311.318	306.114	283.434	302.413	314.469	315.735	315.854	295.753	286.991	308.931	228.167	264.192	108.489	113.145	135.801	116.248	104.311	103.357	103.548	123.434	132.482	109.969	190.208	155.353	37.487
85.000	311.079	306.209	283.935	302.437	314.422	315.472	315.830	295.609	286.514	309.050	228.406	264.741	108.322	113.001	135.347	116.081	104.311	103.595	103.667	123.386	132.220	109.778	190.256	154.780	36.540
86.000	311.581	306.711	284.484	302.819	314.326	315.353	315.615	295.753	286.776	309.217	228.119	265.123	108.370	112.906	135.180	116.200	104.550	103.476	103.524	123.219	132.387	109.874	190.328	154.398	42.766
87.000	311.366	306.663	284.651	302.533	314.207	315.568	315.759	295.633	286.705	309.456	227.976	265.266	108.274	112.978	134.965	116.320	104.431	103.428	103.739	123.267	132.673	109.826	190.304	153.825	46.105
88.000	311.056	306.949	284.532	302.819	314.398	315.377	315.687	295.705	286.657	309.026	228.334	266.341	108.251	112.739	134.965	116.224	104.407	103.380	103.667	123.124	132.387	109.683	190.184	153.133	41.232
89.000	311.294	307.093	284.675	302.676	314.374	315.377	315.759	295.968	286.824	309.313	228.406	266.627	108.131	112.667	134.726	116.009	104.431	103.452	103.739	123.291	132.506	109.588	190.328	152.894	35.457
