-----------------------------------------------------
BloodHound 307 VOC Analyser V2017.1
RoboScientific Ltd 
Espace North
Wisbech Road
Littleport
Cambridgeshire, UK
CB6 1RA 
-----------------------------------------------------
Date = 31/03/2022
Time = 11:29:52
Data is protected by RoboScientific Limited
-----------------------------------------------------
Name of the experiment = "36b_Day 24"
-----------------------------------------------------
Repeat No. = 3/4
-----------------------------------------------------
Experimental Time (in sec) and Flow Profile :
-----------------------------------------------------
Baseline = 2.00
Absorb = 4.00
Pause = 1.00
Desorb = 5.00
Flush = 20.00
Wait = 5.00
Higher Flow (V) = 4.00
Medium Flow (V) = 3.00
Low Flow (V) = 1.00
-----------------------------------------------------
Total Profile Time = 37 in sec
-----------------------------------------------------
Acquired data point per second = 4
--------------------------------------------------
Total data point stored  = 128
-----------------------------------------------------
Acquired sensor responses from 24 sensors
-----------------------------------------------------

Data Points	 Sen-1	 Sen-2	 Sen-3	 Sen-4	 Sen-5	 Sen-6	 Sen-7	 Sen-8	 Sen-9	 Sen-10	 Sen-11	 Sen-12	 Sen-13	 Sen-14	 Sen-15	 Sen-16	 Sen-17	 Sen-18	 Sen-19	 Sen-20	 Sen-21	 Sen-22	 Sen-23	 Sen-24	Humidity (%r.h.)
0.000	312.989	309.886	293.867	303.679	314.589	315.663	315.782	294.631	286.705	310.817	229.241	282.073	106.579	109.420	125.511	115.078	104.240	103.452	103.500	124.126	132.482	108.107	188.919	137.090	48.000
1.000	313.204	309.957	293.891	304.061	314.947	315.782	315.615	294.678	286.299	310.483	229.408	282.288	106.412	109.755	125.630	115.007	104.144	103.428	103.500	124.198	132.482	108.036	188.943	137.042	40.059
2.000	313.371	309.910	293.723	303.774	314.851	315.782	315.639	294.893	286.776	311.032	229.241	282.097	106.603	109.659	125.559	115.031	104.144	103.452	103.500	124.174	132.458	108.083	189.086	137.137	33.607
3.000	312.751	310.339	294.010	303.679	314.517	315.496	315.496	294.631	286.657	310.936	229.313	282.431	106.532	109.516	125.392	114.911	104.240	103.548	103.571	124.079	132.458	108.036	189.158	136.779	39.427
4.000	313.204	309.623	293.747	303.917	314.923	315.806	315.950	294.750	286.538	310.674	229.241	282.837	106.436	109.420	125.344	114.959	104.216	103.500	103.619	124.222	132.363	107.892	189.038	136.755	48.316
5.000	313.037	309.862	294.129	303.703	314.565	315.472	315.830	294.392	286.561	311.008	229.361	282.503	106.651	109.444	125.320	114.935	104.311	103.571	103.452	124.150	132.506	108.012	189.014	136.755	43.217
6.000	313.037	309.766	293.891	303.822	314.851	316.021	315.782	294.631	286.585	311.008	229.361	282.407	106.197	109.564	125.392	115.031	104.240	103.595	103.500	124.270	132.434	107.940	188.991	136.612	34.284
7.000	313.538	310.005	293.676	303.607	314.828	315.639	315.902	294.774	286.609	311.175	229.384	282.551	106.436	109.540	125.320	114.887	104.025	103.476	103.500	124.317	132.458	107.988	189.038	136.517	36.630
8.000	313.300	310.363	294.153	303.368	314.613	315.544	315.782	294.750	286.681	310.888	229.504	282.885	106.365	109.420	125.272	114.864	104.192	103.428	103.595	124.246	132.411	107.964	189.134	136.254	46.511
9.000	313.443	310.005	294.010	303.941	314.851	315.568	315.520	294.750	286.800	310.912	228.883	282.956	106.579	109.277	125.129	114.935	104.216	103.571	103.524	124.079	132.482	107.869	189.038	136.350	45.970
10.000	311.843	308.549	293.938	303.535	314.589	315.448	315.711	294.917	287.039	310.435	228.573	279.304	107.869	111.521	125.344	115.102	104.359	103.691	103.619	124.150	132.100	108.442	189.373	141.124	36.765
11.000	298.164	275.412	290.906	302.628	314.469	315.257	315.830	293.652	287.612	306.066	226.806	264.980	120.378	141.650	128.137	116.248	104.383	103.595	103.619	124.723	131.217	112.309	191.450	152.822	41.052
12.000	279.996	230.721	282.933	300.050	314.302	315.257	315.663	291.646	287.874	294.583	225.230	286.466	138.785	187.272	135.299	118.325	104.789	103.906	103.595	127.039	130.739	124.174	192.930	132.267	39.247
13.000	268.632	255.407	273.717	296.899	313.610	314.684	315.305	289.187	288.543	286.919	224.681	298.092	151.247	164.138	145.708	121.978	105.195	104.025	103.762	129.474	130.453	132.339	193.718	121.476	32.750
14.000	258.152	272.118	262.664	292.625	313.276	314.469	315.424	286.824	288.901	281.214	223.894	304.753	161.465	147.499	156.833	126.418	105.505	104.479	103.977	131.790	130.405	137.973	194.649	114.267	42.766
15.000	247.648	282.455	251.706	287.373	312.345	313.896	315.424	284.795	288.280	275.962	223.512	309.456	171.945	135.729	167.194	131.288	106.006	104.717	104.073	133.819	130.596	143.034	194.983	109.373	51.339
16.000	236.379	291.026	242.300	282.407	312.369	313.873	314.780	282.455	288.065	270.662	222.748	313.443	182.545	127.731	176.791	136.159	106.436	105.099	104.192	135.896	130.716	147.761	195.795	106.245	41.593
17.000	226.806	297.042	235.424	277.298	311.509	313.061	314.541	280.307	287.874	265.505	222.270	315.830	192.954	121.835	184.908	141.244	106.890	105.553	104.311	137.997	130.668	153.300	196.033	102.760	29.907
18.000	218.880	302.198	232.560	272.691	311.175	312.727	314.422	278.325	287.731	260.253	222.199	318.385	200.545	117.060	188.847	145.923	107.511	106.174	104.717	140.289	131.050	158.910	196.702	101.423	36.720
19.000	224.180	305.398	234.350	267.892	310.936	312.345	313.920	275.962	287.469	255.001	221.315	319.244	194.744	113.049	185.481	150.984	107.988	106.627	105.171	142.748	131.527	164.616	197.012	99.895	51.384
20.000	231.700	309.002	239.698	263.022	309.862	311.294	313.562	273.431	287.325	248.841	220.957	320.462	187.367	109.731	178.940	155.186	108.442	107.248	105.434	144.992	131.933	169.892	197.155	98.940	47.368
21.000	239.316	311.724	243.780	258.725	309.217	310.626	313.228	271.163	286.705	242.849	220.957	321.799	180.468	107.534	172.900	159.602	109.062	108.155	105.815	147.331	132.196	175.574	197.275	98.033	32.253
22.000	245.642	313.705	249.199	254.977	309.146	309.528	312.607	268.752	286.108	237.669	221.029	322.801	174.022	104.980	166.979	164.162	109.850	109.134	106.293	149.838	132.411	181.327	197.322	96.600	32.028
23.000	251.014	315.806	253.473	250.345	308.024	308.788	312.225	266.746	286.466	232.321	220.766	323.517	168.077	103.237	162.181	168.125	110.471	110.280	106.914	152.130	132.888	186.532	197.776	96.839	47.594
24.000	256.529	317.334	257.865	246.478	307.618	307.069	311.366	264.096	285.917	227.331	220.313	323.685	162.276	101.781	157.430	172.040	111.139	111.474	107.463	154.398	133.031	191.641	197.609	96.123	52.241
25.000	260.110	318.409	260.659	242.921	306.782	305.756	310.841	261.637	285.296	222.175	220.766	324.592	159.197	100.993	153.491	175.550	111.951	112.715	107.892	156.594	133.270	196.367	198.039	95.383	37.262
26.000	260.706	318.719	262.163	243.709	306.997	305.827	311.175	261.733	285.439	223.249	220.575	323.971	159.173	100.492	152.560	175.669	111.951	112.954	108.155	157.120	133.413	195.914	197.943	95.359	29.095
27.000	259.202	318.982	262.712	244.663	306.591	305.899	310.578	261.972	285.654	225.827	220.480	324.114	160.510	100.683	151.844	174.094	111.951	112.787	108.394	156.809	133.342	193.145	197.633	95.836	41.503
28.000	257.794	318.361	262.927	246.167	306.711	305.994	310.769	262.831	285.774	228.573	221.053	324.425	161.775	100.850	152.130	172.781	111.999	112.548	108.489	156.284	133.222	190.256	197.585	95.717	53.640
29.000	256.743	318.361	262.234	247.290	306.639	306.352	310.865	262.951	285.750	230.865	220.718	324.425	162.921	101.017	152.679	171.635	111.999	112.524	108.513	155.950	133.127	188.012	197.728	96.409	43.398
30.000	257.889	318.623	263.452	246.478	306.567	305.708	310.101	262.091	285.750	232.440	220.862	324.401	161.321	100.730	151.485	172.375	112.190	112.978	108.752	156.761	133.270	186.245	197.728	95.645	29.321
31.000	238.600	316.021	263.905	244.974	306.257	305.899	310.244	265.242	286.012	258.773	221.626	321.154	179.823	103.118	150.817	173.425	112.596	113.264	108.991	153.133	133.031	159.626	196.773	98.033	35.547
32.000	272.500	306.758	263.452	251.324	307.021	306.496	310.506	270.089	286.442	279.208	222.509	315.902	148.334	112.572	151.247	167.313	112.118	112.357	108.609	148.955	132.506	140.122	195.389	102.855	50.707
33.000	289.259	291.909	260.563	258.749	307.355	308.095	311.438	273.694	286.872	291.288	223.726	309.337	130.811	128.161	154.422	159.913	111.115	110.877	107.940	144.968	132.148	128.042	194.625	110.280	48.180
34.000	297.758	267.940	256.051	265.648	308.716	309.766	311.987	276.845	286.919	297.448	224.538	298.976	121.858	152.488	159.698	152.464	110.423	109.229	107.152	141.578	131.861	121.047	193.932	120.904	34.690
35.000	302.175	238.671	250.393	272.476	309.122	310.554	312.536	279.017	287.015	301.482	225.230	286.681	116.773	179.847	166.263	146.066	109.588	107.869	106.460	138.809	131.885	117.251	193.336	132.458	33.968
36.000	305.039	232.512	242.563	277.704	309.862	311.819	313.443	281.285	287.278	304.037	225.541	272.667	113.932	188.227	173.664	141.053	108.871	107.057	106.006	136.827	131.981	114.887	192.930	145.660	43.759
37.000	307.785	249.367	234.995	282.193	310.721	312.703	313.729	283.697	287.039	305.708	225.875	259.346	111.951	170.775	182.354	136.374	108.060	106.197	105.481	134.750	131.861	113.216	192.357	159.698	45.699
38.000	308.811	262.187	229.504	285.630	311.175	313.228	313.992	285.344	286.967	307.236	226.018	246.788	110.351	157.263	189.659	133.103	107.582	105.672	105.075	132.912	131.981	111.975	192.046	172.160	40.104
39.000	310.077	271.903	228.979	288.400	311.772	313.801	314.565	286.896	287.039	307.833	226.448	236.093	109.778	147.403	191.259	130.166	107.152	105.171	104.861	131.838	131.957	111.259	191.760	183.380	38.660
40.000	310.769	279.113	233.467	290.763	312.034	314.183	314.684	287.540	287.039	308.429	226.854	227.069	108.728	139.883	186.460	127.684	106.675	104.908	104.789	130.954	132.076	110.399	191.473	190.805	40.420
41.000	311.223	284.723	239.077	292.840	312.536	314.446	314.684	288.519	286.991	308.716	226.902	220.456	108.060	135.180	180.444	126.227	106.341	104.574	104.431	130.143	132.100	109.922	191.378	198.086	41.954
42.000	311.724	289.068	244.735	293.771	312.798	314.446	315.138	289.402	286.919	309.170	227.140	217.997	107.773	130.477	174.762	124.604	106.006	104.335	104.383	129.450	132.076	109.516	191.259	201.524	40.104
43.000	311.843	291.790	249.319	295.251	313.037	314.708	315.257	289.760	286.943	309.814	227.307	220.551	107.296	127.493	169.534	123.339	105.935	104.311	104.264	128.662	132.148	109.277	191.139	198.874	40.871
44.000	312.416	294.654	253.879	296.660	313.204	314.875	315.186	290.166	286.896	310.077	227.379	224.228	107.415	125.105	165.022	122.646	105.768	104.240	104.144	128.304	132.267	108.967	191.091	195.341	41.007
45.000	312.607	296.731	257.961	297.042	313.300	314.756	315.496	290.763	286.967	310.483	227.785	227.928	106.842	123.267	161.297	121.787	105.505	104.216	104.025	127.922	132.339	108.752	190.877	191.736	39.518
46.000	312.583	298.116	261.017	298.021	313.610	315.257	315.233	291.097	286.800	310.530	227.761	230.984	106.723	121.095	157.764	121.047	105.505	104.049	104.097	127.516	132.220	108.394	190.900	188.465	39.202
47.000	313.037	299.525	263.977	298.665	313.873	314.947	315.329	291.360	286.896	311.079	227.403	234.040	106.579	119.734	154.684	120.331	105.457	104.073	103.977	127.278	132.172	108.203	190.877	185.410	41.999
48.000	313.419	300.647	266.675	299.143	313.825	314.995	315.210	291.623	286.657	310.960	227.713	236.785	106.365	118.731	151.963	119.734	105.362	103.858	103.906	127.087	132.196	108.083	190.614	182.736	42.856
49.000	313.777	301.291	268.871	299.262	314.135	315.305	315.735	292.219	286.752	311.032	227.904	239.746	106.245	117.919	149.862	119.447	105.243	103.882	103.906	126.800	132.267	108.083	190.495	179.752	39.924
50.000	313.395	302.294	271.306	299.787	314.040	315.377	315.424	292.148	286.585	310.888	228.095	241.727	106.102	117.036	147.881	119.041	105.075	103.906	103.786	126.514	132.315	107.797	190.471	177.388	38.299
51.000	313.586	302.628	273.073	300.217	313.920	315.735	315.735	292.386	286.609	311.223	227.904	243.971	105.935	116.463	145.589	118.636	105.052	103.929	103.810	126.299	132.339	107.773	190.423	175.001	41.052
52.000	313.443	303.583	274.887	300.527	314.016	315.257	315.687	292.506	286.514	310.960	228.000	246.239	105.887	115.866	143.941	118.445	105.075	103.762	103.786	126.347	132.482	107.678	190.518	172.852	44.571
53.000	313.371	304.466	276.773	301.053	313.825	315.042	315.305	292.625	286.681	311.270	227.976	248.579	105.959	115.126	142.366	118.134	105.052	103.906	103.834	126.132	132.339	107.511	190.375	170.966	41.413
54.000	313.992	304.490	277.943	301.076	314.183	315.663	315.663	293.103	286.633	311.366	227.809	250.393	106.197	115.055	141.124	117.776	104.813	103.834	103.810	126.084	132.387	107.701	190.351	169.032	37.577
55.000	314.040	305.230	279.304	301.124	314.087	315.544	315.496	293.150	286.585	311.318	227.904	251.945	105.744	114.529	140.026	117.728	104.765	103.643	103.834	125.941	132.530	107.558	190.113	167.290	38.886
56.000	313.514	305.278	280.426	301.673	314.231	315.591	315.377	292.840	286.418	311.294	228.119	253.401	105.720	114.147	138.952	117.442	104.741	103.762	103.834	125.630	132.339	107.415	190.065	166.072	44.165
57.000	314.302	305.254	280.856	301.315	314.111	315.472	315.687	293.294	286.561	311.438	228.501	255.025	105.529	113.837	137.949	117.275	104.693	103.786	103.834	125.774	132.387	107.343	189.946	164.568	43.804
58.000	314.398	305.565	282.025	301.840	314.302	315.281	316.069	293.652	286.490	311.843	228.143	256.385	105.577	113.622	137.185	117.108	104.622	103.691	103.762	125.654	132.602	107.343	190.017	163.255	38.164
59.000	314.350	306.209	283.171	301.721	314.159	315.233	315.687	293.365	286.466	311.581	227.952	257.842	105.577	113.336	136.445	116.917	104.717	103.643	103.786	125.487	132.506	107.296	190.113	161.894	37.352
60.000	313.658	306.233	283.529	301.984	314.374	315.544	315.544	293.222	286.394	311.676	228.382	258.701	105.553	113.145	135.729	116.941	104.717	103.882	103.739	125.487	132.530	107.200	189.946	160.581	43.217
61.000	313.896	306.639	284.341	301.960	314.255	315.257	315.448	293.556	286.609	311.987	228.048	259.799	105.314	112.906	135.275	116.726	104.646	103.595	103.691	125.416	132.482	107.152	189.993	159.459	45.067
62.000	314.350	306.878	284.604	301.912	314.302	315.496	315.926	293.628	286.514	311.628	228.406	260.897	105.434	112.691	134.511	116.797	104.526	103.691	103.667	125.296	132.482	107.200	189.993	158.385	39.743
63.000	314.135	306.734	285.105	301.912	314.159	315.544	315.782	293.795	286.752	311.987	228.286	261.542	105.171	112.548	133.915	116.702	104.598	103.691	103.739	125.368	132.530	107.057	189.946	157.597	35.998
64.000	314.374	307.021	285.869	302.389	314.278	315.711	315.782	293.700	286.418	311.772	228.477	262.449	105.266	112.381	133.461	116.439	104.598	103.667	103.715	125.272	132.530	107.105	189.826	156.714	40.871
65.000	314.350	307.260	286.442	302.366	314.278	315.544	315.973	293.628	286.514	312.106	228.262	263.070	105.457	112.285	133.007	116.296	104.479	103.667	103.715	125.368	132.530	106.938	189.874	155.759	45.789
66.000	314.135	307.331	286.514	302.580	314.684	315.615	315.472	293.461	286.466	311.796	228.453	264.478	105.243	112.046	132.411	116.272	104.550	103.643	103.762	125.105	132.482	107.081	189.802	154.995	42.135
67.000	314.541	307.498	287.254	302.557	314.255	315.544	315.591	293.747	286.394	311.843	228.286	265.004	105.243	111.784	132.172	116.296	104.502	103.667	103.739	125.201	132.578	106.985	189.898	154.231	35.773
68.000	314.064	307.833	287.683	302.724	314.469	315.472	315.520	293.580	286.514	311.915	228.597	265.600	105.314	111.760	131.814	116.153	104.502	103.619	103.643	125.057	132.554	106.961	189.850	153.682	38.480
69.000	314.374	307.331	287.683	302.628	314.350	315.520	315.854	294.010	286.394	311.796	228.597	266.484	105.123	111.688	131.288	116.153	104.526	103.643	103.548	125.010	132.458	106.866	189.898	153.061	45.293
70.000	314.756	307.952	288.209	302.628	314.350	315.496	315.806	294.153	286.394	311.867	228.477	266.746	105.004	111.832	131.193	116.200	104.407	103.524	103.667	124.962	132.530	106.866	189.778	152.464	44.255
71.000	314.350	307.928	288.686	302.628	314.422	315.186	315.615	293.986	286.657	311.915	228.406	267.319	105.290	111.450	130.739	116.009	104.574	103.715	103.643	124.938	132.554	106.866	189.778	152.058	36.946
72.000	314.064	308.095	289.044	302.915	314.398	315.400	315.639	293.580	286.394	312.106	228.621	267.749	105.147	111.712	130.548	116.057	104.574	103.619	103.404	124.890	132.482	106.818	189.755	151.485	36.720
73.000	314.374	307.737	289.044	303.082	314.756	315.711	315.591	293.676	286.227	311.963	228.501	268.680	105.052	111.330	130.381	115.842	104.455	103.571	103.619	124.771	132.339	106.794	189.731	151.199	43.804
74.000	314.446	308.573	289.378	303.201	314.350	315.257	315.782	294.105	286.681	312.106	228.692	269.062	105.075	111.450	129.975	115.962	104.455	103.571	103.524	124.771	132.554	106.985	189.802	150.483	45.970
75.000	314.756	308.095	289.832	302.819	314.469	315.663	315.878	294.105	286.514	312.082	228.310	268.967	105.338	111.330	129.856	115.986	104.502	103.643	103.667	124.795	132.745	106.938	189.826	150.125	39.157
76.000	315.066	308.000	289.904	303.106	314.660	315.735	315.830	294.225	286.299	311.843	228.549	269.731	105.243	111.426	129.522	115.771	104.479	103.691	103.715	124.843	132.506	106.818	189.778	149.599	35.186
77.000	314.278	308.262	289.856	302.819	314.517	315.520	315.759	294.416	286.490	312.106	228.764	270.065	104.932	111.402	129.546	115.818	104.359	103.571	103.643	124.819	132.625	106.699	189.659	149.146	40.826
78.000	314.875	308.644	290.023	302.819	314.374	315.329	316.021	294.296	286.896	312.369	228.883	270.662	104.980	111.020	129.283	115.771	104.335	103.595	103.524	124.699	132.554	106.675	189.707	148.788	46.827
79.000	314.732	308.716	290.500	303.177	314.374	315.162	315.568	294.010	286.490	312.369	228.644	271.187	104.884	111.163	129.116	115.747	104.407	103.595	103.524	124.676	132.506	106.770	189.778	148.406	42.135
80.000	314.899	308.453	290.071	302.962	314.469	315.615	315.973	294.344	286.657	312.010	228.716	271.282	104.980	111.163	128.901	115.580	104.383	103.571	103.548	124.819	132.602	106.794	189.683	148.095	35.276
81.000	314.780	308.453	290.286	303.082	314.469	315.520	315.759	294.177	286.681	312.154	229.002	271.640	104.908	110.948	128.782	115.580	104.407	103.428	103.524	124.699	132.602	106.890	189.635	147.570	38.074
82.000	313.873	308.453	290.333	303.106	314.732	315.544	315.591	294.177	286.347	312.249	228.907	272.309	104.813	110.901	128.591	115.675	104.359	103.571	103.548	124.652	132.506	106.890	189.683	147.284	46.015
83.000	314.684	308.835	290.906	303.010	314.398	315.472	315.782	293.986	286.227	312.058	228.979	272.572	104.884	111.020	128.615	115.747	104.335	103.500	103.571	124.580	132.530	106.651	189.683	146.926	44.661
84.000	314.660	308.644	291.121	302.867	314.326	315.353	315.735	294.201	286.609	312.273	228.740	272.930	104.980	111.092	128.161	115.627	104.431	103.548	103.524	124.699	132.578	106.723	189.635	146.758	36.991
85.000	314.302	308.788	291.050	303.535	314.637	315.591	315.568	294.177	286.705	312.249	228.668	272.786	104.932	110.805	128.185	115.556	104.359	103.500	103.548	124.556	132.411	106.532	189.587	146.329	35.637
86.000	314.995	308.477	290.811	303.058	314.469	315.544	315.878	294.463	286.824	312.440	228.692	273.288	105.028	110.805	128.089	115.556	104.216	103.548	103.548	124.508	132.506	106.627	189.683	146.018	43.984
87.000	314.828	308.668	291.217	303.177	314.804	315.496	315.782	294.201	286.418	312.488	228.644	273.407	104.956	110.781	127.922	115.436	104.479	103.667	103.667	124.508	132.602	106.699	189.564	145.708	46.782
88.000	314.828	308.811	291.599	302.819	314.040	315.496	315.591	294.750	286.514	312.154	228.692	273.789	105.075	110.733	127.851	115.460	104.335	103.476	103.571	124.580	132.458	106.651	189.683	145.374	39.969
89.000	314.828	308.883	291.694	303.273	314.469	315.544	315.735	294.511	286.896	312.321	228.835	274.099	104.861	110.710	127.636	115.627	104.240	103.404	103.643	124.604	132.649	106.770	189.611	145.063	34.329
