-----------------------------------------------------
BloodHound 307 VOC Analyser V2017.1
RoboScientific Ltd 
Espace North
Wisbech Road
Littleport
Cambridgeshire, UK
CB6 1RA 
-----------------------------------------------------
Date = 31/03/2022
Time = 12:11:44
Data is protected by RoboScientific Limited
-----------------------------------------------------
Name of the experiment = "36b_Day 36"
-----------------------------------------------------
Repeat No. = 4/4
-----------------------------------------------------
Experimental Time (in sec) and Flow Profile :
-----------------------------------------------------
Baseline = 2.00
Absorb = 4.00
Pause = 1.00
Desorb = 5.00
Flush = 20.00
Wait = 5.00
Higher Flow (V) = 4.00
Medium Flow (V) = 3.00
Low Flow (V) = 1.00
-----------------------------------------------------
Total Profile Time = 37 in sec
-----------------------------------------------------
Acquired data point per second = 4
--------------------------------------------------
Total data point stored  = 128
-----------------------------------------------------
Acquired sensor responses from 24 sensors
-----------------------------------------------------

Data Points	 Sen-1	 Sen-2	 Sen-3	 Sen-4	 Sen-5	 Sen-6	 Sen-7	 Sen-8	 Sen-9	 Sen-10	 Sen-11	 Sen-12	 Sen-13	 Sen-14	 Sen-15	 Sen-16	 Sen-17	 Sen-18	 Sen-19	 Sen-20	 Sen-21	 Sen-22	 Sen-23	 Sen-24	Humidity (%r.h.)
0.000	313.300	309.790	291.241	303.583	314.756	315.544	316.045	296.540	286.681	311.079	228.573	281.620	106.030	109.659	127.946	114.935	104.311	103.500	103.524	122.408	132.339	107.797	189.707	137.567	34.961
1.000	313.324	310.124	291.551	304.132	314.613	315.544	315.759	296.445	286.633	311.175	228.549	281.500	106.341	109.564	127.827	114.935	104.120	103.524	103.595	122.503	132.363	107.725	189.802	137.424	43.623
2.000	313.371	309.957	291.742	303.893	314.517	315.281	315.735	296.517	287.039	311.032	228.621	281.811	106.317	109.492	127.803	115.007	104.192	103.452	103.524	122.479	132.363	107.773	189.778	137.281	48.135
3.000	313.491	309.838	291.360	303.750	314.780	315.854	315.973	296.540	286.657	310.984	228.167	281.858	106.197	109.516	127.684	114.887	104.264	103.524	103.595	122.646	132.411	107.773	189.731	137.066	41.683
4.000	313.276	310.124	291.742	304.108	314.804	315.639	315.735	296.111	286.561	311.438	228.358	282.527	106.102	109.564	127.731	114.935	104.264	103.476	103.619	122.503	132.291	107.940	189.826	137.042	33.562
5.000	313.896	309.910	291.694	304.013	314.780	315.806	316.021	296.540	286.800	311.366	228.501	282.121	106.245	109.492	127.803	115.031	104.192	103.380	103.380	122.479	132.315	107.821	189.707	137.114	37.307
6.000	312.965	309.981	291.718	304.180	314.613	315.544	315.663	296.445	286.370	311.175	228.812	282.193	106.126	109.540	127.707	114.864	104.120	103.452	103.571	122.479	132.267	107.749	189.874	136.923	46.195
7.000	313.204	309.933	291.599	303.822	315.114	315.902	315.854	296.493	286.561	310.936	228.573	282.360	106.174	109.588	127.540	114.911	104.431	103.571	103.571	122.503	132.220	107.606	189.707	136.923	46.872
8.000	313.300	309.933	291.861	303.822	314.804	315.687	315.639	296.421	286.824	311.175	228.453	282.240	106.174	109.373	127.349	114.983	104.168	103.595	103.500	122.503	132.387	107.701	189.683	136.779	38.570
9.000	313.085	309.886	291.646	303.846	314.541	315.472	315.687	296.349	286.872	311.366	228.477	282.742	106.030	109.468	127.421	114.887	104.049	103.237	103.404	122.527	132.434	107.773	189.731	136.923	33.607
10.000	312.082	308.429	291.336	303.750	314.780	315.782	316.236	296.326	287.039	310.697	228.024	278.803	107.009	110.423	127.493	115.055	104.335	103.524	103.452	122.455	132.029	108.227	190.065	138.928	40.104
11.000	299.190	273.861	288.065	302.533	314.255	315.615	315.663	295.347	287.755	306.233	225.994	270.375	119.376	143.392	130.310	115.771	104.311	103.428	103.524	123.530	131.050	112.261	192.166	150.339	39.608
12.000	280.116	242.324	280.617	300.026	314.278	315.114	315.424	292.315	288.256	294.535	224.371	291.312	140.360	177.603	138.976	118.779	104.837	103.762	103.715	126.203	130.501	125.248	193.718	127.612	37.984
13.000	263.165	267.081	268.680	295.729	313.276	314.899	315.329	289.259	288.805	284.699	223.201	302.366	156.141	151.199	151.008	122.694	105.243	103.977	103.810	129.522	130.286	134.655	194.768	116.702	48.451
14.000	246.884	283.697	255.359	290.310	313.133	314.637	315.257	286.132	288.495	276.917	222.604	310.077	171.658	134.631	163.756	128.089	105.648	104.311	103.977	132.243	130.286	141.506	195.699	109.110	48.180
15.000	230.268	294.798	242.849	284.341	312.034	313.920	314.708	283.267	288.256	269.587	221.936	314.111	188.465	123.744	176.385	134.153	106.269	104.622	104.192	135.347	130.501	149.217	196.678	104.837	35.773
16.000	223.488	302.748	234.350	278.612	311.867	313.825	314.780	280.330	288.113	261.661	221.172	317.358	195.818	116.105	186.436	140.384	106.818	105.266	104.431	138.451	130.763	157.191	197.227	101.733	30.358
17.000	237.740	308.501	232.345	272.070	311.103	313.013	314.087	277.084	287.898	252.733	220.742	320.199	182.163	110.495	188.823	146.567	107.558	105.720	104.765	141.578	131.312	166.573	197.561	99.465	43.037
18.000	249.247	312.106	236.905	266.412	310.459	312.225	314.040	273.717	287.254	243.685	220.408	321.655	168.865	106.365	181.518	153.013	108.060	106.460	105.052	144.920	131.503	175.980	198.230	97.245	53.189
19.000	260.730	315.830	243.159	260.205	309.623	311.127	313.419	270.542	286.848	233.706	219.931	322.825	158.218	103.357	173.210	158.337	109.062	107.463	105.672	148.239	132.052	184.622	198.397	96.362	44.210
20.000	270.423	318.361	249.653	254.165	308.740	310.148	312.894	266.746	286.347	224.347	219.716	324.067	148.907	101.423	165.738	163.971	109.826	108.442	106.245	151.748	132.482	194.195	198.540	95.263	30.178
21.000	277.776	320.318	255.693	249.462	307.761	308.788	312.010	264.168	285.917	216.517	219.596	325.403	141.053	99.226	159.173	169.486	110.877	109.946	106.938	155.305	132.840	202.598	198.803	94.404	33.427
22.000	284.604	321.727	260.396	243.780	306.902	307.236	311.247	260.969	285.774	222.413	219.405	325.308	134.058	97.818	153.228	175.048	111.760	111.115	107.511	158.385	133.509	196.558	198.874	93.783	49.128
23.000	290.572	323.016	264.741	238.838	306.161	305.780	310.363	257.436	285.153	229.671	219.214	325.762	129.331	96.218	148.883	179.847	112.548	112.691	108.251	161.417	133.962	188.656	199.137	93.497	52.377
24.000	295.347	323.804	268.823	234.016	305.254	304.252	309.623	254.428	284.556	237.024	219.334	326.693	124.174	94.619	144.467	184.646	113.670	114.482	109.325	165.046	134.249	181.208	199.423	92.733	38.119
25.000	298.999	324.735	271.593	230.029	303.917	302.127	308.429	251.324	284.317	241.870	219.023	327.003	120.474	93.688	141.697	189.325	114.386	116.129	110.423	167.839	134.583	176.934	199.376	92.781	28.779
26.000	299.286	325.833	272.572	229.671	304.108	301.697	307.856	251.826	284.317	241.512	218.809	327.218	120.689	93.282	140.360	189.134	115.102	116.869	111.044	168.149	134.702	177.293	199.495	93.043	38.976
27.000	299.119	325.189	273.240	231.270	303.559	302.103	308.024	252.422	284.484	239.555	218.928	327.170	120.522	93.545	140.169	187.701	115.055	116.726	111.306	167.361	134.535	179.274	199.495	93.067	53.324
28.000	298.641	325.547	273.121	232.727	303.750	302.246	307.785	253.019	284.580	237.310	219.238	327.146	120.689	93.688	140.337	186.388	114.911	116.368	111.354	166.550	134.440	181.494	199.113	93.568	47.549
29.000	299.095	325.594	272.858	233.753	303.440	302.366	307.594	253.282	285.010	234.995	219.286	327.098	120.689	93.616	140.551	185.171	114.887	116.153	111.354	165.857	134.225	183.953	199.137	93.879	31.802
30.000	299.692	325.857	273.216	233.300	303.368	301.435	307.260	252.709	284.365	236.141	219.047	326.836	119.209	93.664	139.835	185.744	115.293	117.012	111.855	166.669	134.320	182.640	199.065	92.948	31.216
31.000	290.333	324.592	274.911	230.316	303.034	301.053	306.639	255.932	284.747	230.841	220.122	325.069	128.352	94.690	138.713	188.871	115.866	117.776	112.214	163.446	134.225	187.128	198.444	94.762	46.060
32.000	249.605	320.366	274.410	235.950	303.392	302.103	307.355	262.163	285.224	247.409	220.981	321.035	168.674	98.415	138.952	183.165	115.389	116.773	111.688	157.120	133.246	172.876	197.084	98.176	53.144
33.000	262.043	314.087	272.954	243.637	304.657	303.822	308.119	267.296	286.347	271.569	222.366	315.544	158.385	105.768	141.268	174.977	114.553	115.055	110.590	151.748	132.554	148.310	196.344	103.882	41.007
34.000	281.476	302.413	269.540	251.587	305.326	305.875	309.695	271.330	286.872	285.583	223.106	308.955	136.946	116.941	144.825	166.311	113.288	112.978	109.540	147.308	132.005	133.318	195.508	111.283	30.358
35.000	293.628	284.938	264.765	260.062	306.376	307.952	310.650	274.744	286.991	294.034	223.392	299.262	126.060	133.485	149.289	158.313	112.190	111.044	108.418	143.798	132.052	125.010	194.696	119.495	37.397
36.000	300.050	261.637	259.322	267.272	307.188	309.408	311.867	277.871	287.110	298.976	224.132	288.996	119.209	156.714	155.902	151.175	111.211	109.420	107.654	140.695	131.957	120.092	194.195	129.713	48.180
37.000	304.252	238.695	252.351	273.908	308.716	311.008	312.201	280.378	286.967	302.079	224.658	278.803	115.484	181.208	163.351	145.111	110.089	107.964	106.842	138.069	131.742	116.654	193.694	140.790	46.060
38.000	306.400	226.806	244.210	278.421	309.265	311.891	313.109	282.622	287.063	304.299	224.968	266.651	112.978	193.336	171.611	139.978	109.349	106.938	106.197	135.490	131.718	114.482	193.359	152.345	38.254
39.000	307.928	241.464	236.785	282.622	310.244	312.679	313.610	284.628	287.206	305.756	225.398	255.884	111.259	178.033	180.826	135.657	108.465	106.006	105.577	133.700	131.790	113.145	193.049	163.589	36.449
40.000	309.026	254.905	229.981	286.108	311.127	313.347	313.705	286.060	287.182	306.902	225.684	246.024	109.969	164.496	188.012	132.649	108.012	105.457	105.052	132.172	131.814	112.046	192.643	172.876	41.277
41.000	310.650	265.959	227.737	288.996	311.700	313.873	314.278	287.230	287.158	307.976	225.660	237.215	109.325	153.777	192.548	130.023	107.415	105.004	104.956	131.241	131.957	111.187	192.428	181.494	44.120
42.000	310.841	274.052	231.008	290.691	311.939	314.398	314.565	288.614	286.967	308.238	226.424	230.196	108.656	145.422	189.396	127.946	106.961	104.574	104.574	130.119	132.076	110.733	192.118	188.728	41.232
43.000	311.366	279.972	235.114	292.458	311.963	314.350	314.517	289.259	287.087	308.979	226.209	224.276	107.821	139.119	184.001	126.203	106.556	104.335	104.574	129.283	131.909	109.969	192.094	194.840	39.157
44.000	311.294	284.795	240.414	293.962	312.583	314.565	314.732	289.760	287.110	309.528	226.138	219.644	107.725	134.655	178.558	124.723	106.269	104.288	104.311	128.519	132.172	109.683	191.808	199.423	40.104
45.000	311.987	288.447	245.523	295.275	312.894	314.971	314.875	290.930	287.110	309.695	226.520	218.259	107.463	131.265	174.046	123.530	106.030	104.192	104.288	128.018	132.029	109.182	191.784	201.835	40.961
46.000	312.297	291.455	250.130	296.493	313.085	315.090	315.138	291.432	286.776	310.005	226.567	220.241	107.176	128.209	169.510	122.527	105.863	104.001	104.216	127.325	132.100	109.038	191.617	199.710	40.014
47.000	312.727	293.986	253.664	296.922	312.918	315.090	315.353	291.933	287.087	310.602	226.711	222.772	106.961	125.774	165.547	121.739	105.720	104.049	104.144	126.753	132.220	108.633	191.497	196.630	40.420
48.000	312.607	295.514	256.863	297.495	313.443	315.186	315.257	292.339	287.015	310.411	226.758	226.114	106.794	123.983	161.870	121.095	105.505	103.786	104.120	126.418	132.196	108.489	191.450	193.312	41.728
49.000	312.894	297.543	259.751	298.283	313.467	315.066	315.257	292.577	286.728	310.769	226.878	229.408	106.269	122.240	158.815	120.522	105.410	103.858	103.977	126.060	132.172	108.251	191.306	189.922	41.187
50.000	312.870	298.641	263.261	298.689	313.467	315.162	315.305	292.745	286.752	310.984	226.997	232.536	106.508	121.023	155.711	119.996	105.314	103.739	103.882	125.821	132.243	108.346	191.330	186.723	38.976
51.000	313.538	299.477	265.815	299.286	313.777	315.281	315.615	293.532	286.967	310.769	226.687	235.401	106.269	119.805	153.180	119.399	105.195	103.715	103.977	125.511	132.363	108.012	191.259	184.120	39.112
52.000	313.538	300.312	268.059	299.835	313.896	315.496	315.424	293.389	286.657	310.960	227.236	237.597	106.150	119.018	150.912	118.922	105.052	103.810	103.882	125.296	132.363	107.916	191.139	181.590	42.135
53.000	313.801	301.220	270.113	300.193	313.729	315.424	315.830	293.819	286.848	311.175	227.069	240.271	106.221	118.182	148.812	118.564	105.099	103.691	103.834	125.057	132.196	107.725	191.091	178.821	43.669
54.000	313.634	302.079	272.309	300.623	314.350	315.424	315.448	293.938	286.657	311.079	226.926	242.586	105.815	117.418	146.997	118.206	105.052	103.810	103.762	124.843	132.243	107.749	191.091	176.720	40.736
55.000	313.753	302.676	273.861	300.933	313.849	315.591	315.472	294.225	286.705	311.605	227.260	244.449	105.911	116.821	145.445	118.086	104.956	103.571	103.715	124.485	132.315	107.630	191.044	174.953	38.254
56.000	313.896	302.915	274.863	300.933	314.135	315.615	315.639	294.511	287.110	311.485	227.498	246.239	105.935	116.200	144.299	117.824	104.837	103.762	103.953	124.389	132.339	107.582	191.020	173.353	39.518
57.000	313.920	303.535	275.890	301.172	314.111	315.305	315.806	294.631	286.633	311.175	227.570	248.173	105.648	115.890	142.963	117.609	104.765	103.619	103.882	124.365	132.315	107.487	191.044	171.491	44.030
58.000	313.610	304.013	277.752	301.578	314.135	315.448	315.305	294.487	286.561	311.509	227.260	249.247	105.792	115.389	141.817	117.370	104.765	103.619	103.810	124.198	132.291	107.487	190.900	169.987	43.714
59.000	313.801	304.275	278.253	301.482	313.920	315.520	315.687	294.869	286.919	311.772	227.570	250.942	105.648	115.126	140.981	117.370	104.789	103.643	103.762	124.079	132.387	107.367	190.877	168.459	39.112
60.000	314.302	304.634	279.017	301.530	314.469	315.591	315.472	294.869	286.609	311.581	227.713	252.136	105.529	114.911	140.074	117.132	104.765	103.619	103.643	123.959	132.434	107.248	190.829	167.170	37.217
61.000	314.278	305.207	280.235	301.840	314.231	315.186	315.472	294.917	286.896	311.819	227.451	253.855	105.529	114.362	139.286	116.988	104.479	103.524	103.619	123.768	132.506	107.296	190.829	165.809	41.638
62.000	314.326	305.016	280.784	301.697	314.040	315.329	315.806	294.989	286.872	311.939	227.451	254.452	105.434	114.147	138.594	116.869	104.741	103.619	103.715	123.744	132.387	107.248	190.829	164.664	45.022
63.000	314.231	305.230	280.927	301.840	314.207	315.448	315.950	295.490	286.705	311.581	227.761	255.645	105.338	113.980	137.830	116.750	104.574	103.595	103.762	123.792	132.434	107.248	190.638	163.541	41.774
64.000	314.231	305.851	282.002	302.652	314.732	315.544	315.830	295.227	286.633	311.628	227.689	256.696	105.601	113.932	137.496	116.606	104.598	103.524	103.715	123.553	132.387	107.296	190.781	162.634	36.856
65.000	314.231	305.875	282.431	302.366	314.541	315.520	315.568	295.251	286.848	311.915	227.737	257.675	105.338	113.622	136.803	116.511	104.574	103.667	103.595	123.506	132.339	107.200	190.686	161.679	38.254
66.000	314.135	305.899	283.338	302.485	314.350	315.854	315.520	295.204	286.442	311.700	227.737	258.486	105.290	113.598	136.374	116.487	104.526	103.404	103.739	123.673	132.411	107.081	190.662	160.701	44.210
67.000	314.422	306.281	283.553	302.533	314.422	315.400	315.735	295.442	286.943	311.867	227.666	259.465	105.290	113.455	135.801	116.320	104.526	103.428	103.691	123.553	132.482	107.105	190.686	159.865	44.751
68.000	314.326	306.185	283.768	302.437	314.398	315.759	315.878	295.609	286.681	311.891	227.785	260.683	105.219	113.121	135.419	116.391	104.526	103.524	103.643	123.482	132.506	107.129	190.733	158.767	39.833
69.000	314.398	306.448	284.293	302.509	314.111	315.400	315.902	295.777	286.561	311.963	227.809	261.542	105.362	113.049	134.941	116.200	104.550	103.619	103.739	123.386	132.506	106.961	190.614	157.860	35.953
70.000	314.493	306.472	284.484	302.366	314.684	315.663	315.878	295.514	286.824	312.034	227.809	262.139	105.219	112.810	134.607	116.200	104.526	103.524	103.691	123.315	132.434	107.009	190.590	157.191	39.382
71.000	314.493	306.830	284.819	302.580	314.565	315.448	315.400	295.395	286.872	311.987	227.880	262.831	104.932	112.715	134.225	116.057	104.502	103.500	103.691	123.386	132.434	106.866	190.709	156.451	45.338
72.000	313.968	306.830	285.368	302.819	314.326	315.663	315.639	295.586	286.609	312.010	227.880	263.643	105.075	112.667	133.938	116.009	104.288	103.524	103.643	123.267	132.434	106.794	190.518	155.759	43.714
73.000	314.374	306.854	285.988	302.748	313.992	315.472	315.878	295.609	286.466	311.963	228.048	264.383	105.266	112.428	133.556	116.105	104.598	103.548	103.667	123.195	132.387	106.818	190.328	155.138	37.532
74.000	314.851	306.902	286.132	302.652	314.469	315.759	315.973	295.991	286.633	311.987	227.857	264.884	105.028	112.500	133.318	115.938	104.407	103.500	103.715	123.291	132.411	106.818	190.542	154.279	36.314
75.000	314.087	307.045	286.466	302.986	314.732	315.496	315.639	295.657	286.490	312.034	227.928	265.529	105.004	112.309	132.912	115.938	104.574	103.500	103.571	123.219	132.506	106.985	190.518	153.801	42.405
76.000	314.541	307.045	286.442	302.604	314.446	315.496	315.639	295.681	286.538	312.249	227.857	266.173	105.004	112.190	132.745	115.938	104.479	103.404	103.643	123.171	132.530	106.747	190.399	153.157	46.331
77.000	314.422	307.570	286.561	302.986	314.469	315.544	315.735	295.800	286.633	311.891	227.785	266.508	105.123	112.142	132.434	115.747	104.383	103.595	103.476	123.195	132.243	106.866	190.518	152.775	41.774
78.000	314.374	307.140	286.896	303.082	314.565	315.639	315.759	295.896	286.752	312.058	227.809	267.009	105.099	112.094	132.172	115.627	104.407	103.500	103.571	123.195	132.482	106.914	190.399	152.369	35.592
79.000	314.231	307.546	287.278	303.177	314.207	315.353	316.069	295.944	286.609	311.915	227.618	266.866	104.884	112.046	131.957	115.747	104.383	103.524	103.619	123.100	132.315	106.723	190.256	152.130	37.803
80.000	314.231	307.307	287.397	302.939	314.350	315.305	315.472	295.562	286.609	312.297	227.928	267.463	105.075	111.903	132.005	115.771	104.455	103.548	103.595	123.028	132.411	106.842	190.495	151.844	44.977
81.000	314.708	307.618	287.301	303.130	314.517	315.663	315.759	295.824	286.848	312.297	227.928	267.821	104.884	111.903	131.838	115.842	104.526	103.452	103.404	123.004	132.411	106.723	190.471	151.318	45.564
82.000	314.374	307.498	287.612	303.201	314.828	315.424	315.568	296.039	287.015	312.321	228.024	268.155	104.980	111.999	131.694	115.675	104.240	103.667	103.595	123.076	132.387	106.699	190.304	150.984	39.202
83.000	314.637	307.737	288.137	302.724	314.541	315.639	315.639	295.920	286.752	312.082	227.785	268.346	105.075	111.927	131.336	115.699	104.431	103.571	103.619	123.052	132.363	106.723	190.351	150.889	35.276
84.000	314.732	307.713	288.209	303.106	314.302	315.544	315.973	295.872	286.705	312.178	227.904	269.038	104.861	111.808	131.241	115.556	104.455	103.548	103.619	122.933	132.434	106.747	190.351	150.172	40.149
85.000	314.159	307.785	288.065	303.177	314.255	315.448	315.568	295.824	286.538	312.154	227.880	269.492	104.837	111.736	131.002	115.580	104.335	103.500	103.667	122.957	132.434	106.699	190.495	149.934	46.511
86.000	314.851	307.427	288.233	303.297	314.684	315.639	315.759	295.991	286.561	312.106	228.095	269.587	104.884	111.664	131.026	115.604	104.359	103.500	103.595	122.981	132.363	106.818	190.351	149.719	43.623
87.000	314.565	307.785	288.614	303.106	314.422	315.639	315.544	295.944	286.776	312.249	227.880	269.874	105.004	111.712	130.739	115.627	104.407	103.619	103.619	123.076	132.482	106.675	190.328	149.337	36.540
88.000	314.207	307.809	288.710	303.106	314.446	315.233	315.568	295.753	286.967	312.560	227.809	270.829	104.908	111.521	130.739	115.508	104.359	103.524	103.500	122.981	132.411	106.651	190.375	148.597	36.043
89.000	314.637	307.928	288.853	303.177	315.019	315.496	315.663	296.135	286.872	312.345	227.952	271.378	104.837	111.521	130.501	115.436	104.240	103.500	103.548	122.981	132.482	106.699	190.328	148.024	43.488
