-----------------------------------------------------
BloodHound 307 VOC Analyser V2017.1
RoboScientific Ltd 
Espace North
Wisbech Road
Littleport
Cambridgeshire, UK
CB6 1RA 
-----------------------------------------------------
Date = 31/03/2022
Time = 11:50:24
Data is protected by RoboScientific Limited
-----------------------------------------------------
Name of the experiment = "36b_Day 29"
-----------------------------------------------------
Repeat No. = 2/4
-----------------------------------------------------
Experimental Time (in sec) and Flow Profile :
-----------------------------------------------------
Baseline = 2.00
Absorb = 4.00
Pause = 1.00
Desorb = 5.00
Flush = 20.00
Wait = 5.00
Higher Flow (V) = 4.00
Medium Flow (V) = 3.00
Low Flow (V) = 1.00
-----------------------------------------------------
Total Profile Time = 37 in sec
-----------------------------------------------------
Acquired data point per second = 4
--------------------------------------------------
Total data point stored  = 128
-----------------------------------------------------
Acquired sensor responses from 24 sensors
-----------------------------------------------------

Data Points	 Sen-1	 Sen-2	 Sen-3	 Sen-4	 Sen-5	 Sen-6	 Sen-7	 Sen-8	 Sen-9	 Sen-10	 Sen-11	 Sen-12	 Sen-13	 Sen-14	 Sen-15	 Sen-16	 Sen-17	 Sen-18	 Sen-19	 Sen-20	 Sen-21	 Sen-22	 Sen-23	 Sen-24	Humidity (%r.h.)
0.000	315.735	310.554	298.713	305.087	314.589	315.568	315.902	296.708	286.585	312.679	228.907	289.593	104.383	108.800	120.927	113.694	104.264	103.548	103.500	122.455	132.745	106.221	189.468	129.665	32.930
1.000	315.782	310.602	298.522	305.135	314.899	315.759	316.069	296.540	286.227	312.798	228.883	290.095	104.049	108.776	120.832	113.670	103.882	103.380	103.428	122.503	132.721	106.293	189.540	129.522	37.758
2.000	315.305	310.984	298.761	305.063	314.947	315.878	315.782	296.373	286.394	312.774	228.907	289.928	104.144	108.847	120.736	113.718	104.120	103.524	103.500	122.360	132.649	106.174	189.516	129.426	48.496
3.000	315.591	310.626	298.665	305.039	314.828	315.639	316.164	296.684	286.633	312.989	228.835	289.784	104.192	108.919	120.689	113.670	104.025	103.476	103.404	122.408	132.721	106.269	189.492	129.307	45.112
4.000	315.400	310.602	298.617	305.016	315.090	315.759	315.711	296.684	286.561	312.774	229.074	290.142	104.383	108.967	120.689	113.550	104.025	103.404	103.667	122.551	132.864	106.197	189.635	129.235	34.600
5.000	315.496	310.626	298.665	305.445	314.851	315.782	315.926	296.803	286.585	312.965	229.050	290.023	104.144	108.967	120.641	113.574	104.168	103.404	103.524	122.527	132.530	105.887	189.516	129.307	35.006
6.000	314.947	310.936	299.167	305.207	314.828	315.591	315.544	296.397	286.466	313.085	228.692	290.142	104.240	108.776	120.378	113.527	104.120	103.595	103.500	122.384	132.554	106.030	189.540	129.044	46.240
7.000	315.257	310.841	299.071	305.517	315.042	315.591	315.711	296.254	286.633	312.965	228.812	290.333	104.192	108.776	120.474	113.503	103.906	103.380	103.524	122.408	132.745	106.293	189.516	128.925	47.684
8.000	315.114	310.984	298.999	305.350	314.947	315.687	315.759	296.660	286.490	312.822	228.764	290.453	104.168	108.680	120.617	113.527	103.906	103.500	103.476	122.384	132.721	106.174	189.564	129.020	36.720
9.000	315.400	310.865	299.143	305.111	314.947	315.615	315.806	296.660	286.299	313.109	228.835	290.691	104.431	108.847	120.402	113.503	104.001	103.404	103.643	122.479	132.721	106.006	189.540	128.853	33.381
10.000	314.493	309.098	298.856	304.944	314.828	315.806	315.878	296.254	286.538	312.416	228.597	287.469	104.789	110.137	120.498	113.670	104.097	103.452	103.452	122.431	132.267	106.556	189.874	131.623	43.623
11.000	311.605	284.842	296.445	304.084	314.756	315.496	315.830	295.562	287.492	311.461	226.806	243.088	107.487	135.060	122.837	114.482	104.240	103.548	103.571	123.267	131.479	107.654	191.450	176.696	42.586
12.000	307.451	246.430	291.623	302.891	314.565	315.305	315.615	293.700	287.803	307.856	225.971	268.776	112.309	174.308	127.469	116.320	104.550	103.762	103.595	124.771	131.097	110.972	192.572	150.960	41.367
13.000	302.604	228.024	284.007	299.978	314.302	315.210	315.711	291.885	288.113	304.204	224.777	282.384	116.726	190.184	135.132	118.230	104.861	103.953	103.786	126.943	130.787	114.864	193.455	135.490	47.143
14.000	298.021	245.977	275.603	297.376	314.087	314.995	315.424	289.856	288.447	300.384	224.013	291.933	121.214	172.184	143.536	121.190	104.861	103.929	103.715	128.686	130.548	118.230	194.123	126.132	40.961
15.000	293.747	259.942	266.603	293.986	313.610	314.565	315.353	288.209	288.328	297.042	223.392	298.617	126.012	159.483	152.536	124.795	105.314	104.192	103.810	130.596	130.763	122.121	194.887	120.235	32.208
16.000	289.092	270.709	258.056	290.429	313.514	314.589	315.233	286.179	288.352	293.914	223.177	303.750	130.357	148.310	161.703	128.233	105.338	104.431	104.001	132.673	130.859	125.201	195.150	115.627	39.382
17.000	285.296	278.540	248.889	286.538	312.942	314.517	315.400	284.556	288.042	290.715	222.652	306.687	134.774	140.408	170.250	132.315	105.959	104.574	104.001	134.058	130.883	128.113	195.604	111.855	51.023
18.000	280.474	285.248	241.178	282.694	312.583	313.849	314.851	282.933	288.185	288.065	222.867	309.742	138.785	133.580	178.415	135.824	106.126	104.956	104.025	135.753	130.930	131.097	195.771	109.086	44.165
19.000	275.365	290.429	235.711	279.208	312.297	313.467	314.637	280.879	287.946	285.033	222.270	312.583	143.416	128.830	185.147	139.358	106.460	105.386	104.335	137.687	131.145	133.628	196.224	107.033	30.945
20.000	270.948	294.607	231.772	275.580	312.058	313.252	314.565	279.232	287.731	282.312	222.008	314.111	148.310	124.771	189.444	143.249	106.985	105.720	104.717	139.214	131.265	136.254	196.558	105.266	35.908
21.000	265.863	297.257	231.820	271.927	311.485	312.798	314.255	277.633	287.731	279.662	221.745	315.353	153.443	120.951	189.301	146.782	107.224	106.174	104.884	141.244	131.670	139.167	196.678	103.476	50.482
22.000	261.017	300.838	234.302	268.561	310.888	311.915	313.825	275.508	287.182	276.654	221.602	316.546	157.931	118.206	184.693	150.339	107.845	106.532	105.004	142.604	131.527	141.673	197.012	102.545	48.361
23.000	256.099	302.867	238.337	265.004	310.769	311.700	313.682	273.956	287.063	273.813	221.626	317.525	163.231	115.508	178.844	153.562	107.988	107.129	105.171	144.562	132.052	144.872	196.940	101.829	32.975
24.000	251.396	305.302	242.061	261.876	310.029	311.056	313.443	272.094	286.705	271.330	221.029	317.764	168.030	113.574	173.783	157.239	108.609	107.725	105.529	146.353	132.220	147.904	197.155	100.969	32.795
25.000	246.382	306.830	246.000	258.486	309.671	310.435	313.395	270.375	286.418	268.131	221.482	319.411	172.828	111.736	169.438	160.414	108.871	108.418	105.887	148.215	132.387	150.841	197.203	100.301	48.406
26.000	246.502	306.973	246.693	259.011	309.671	310.506	313.347	270.327	286.394	269.062	221.291	319.316	173.377	111.474	167.743	159.960	109.038	108.513	105.983	148.501	132.458	150.077	197.418	99.823	50.978
27.000	248.173	306.830	247.457	260.133	309.910	310.769	313.061	271.115	286.561	270.304	221.100	319.173	172.422	112.094	167.385	158.624	108.967	108.298	106.006	148.072	132.387	148.501	197.179	100.348	35.186
28.000	248.985	306.567	247.910	261.447	309.671	310.554	313.085	271.426	286.967	272.500	221.626	318.862	170.322	112.763	168.054	157.000	108.991	108.489	106.197	147.642	132.243	146.615	197.155	100.635	30.539
29.000	250.775	305.994	247.075	262.640	310.077	310.841	313.037	271.927	286.800	273.765	221.315	318.456	169.319	113.216	168.985	156.045	108.847	108.083	106.078	147.117	132.315	145.326	197.036	101.208	45.112
30.000	259.680	306.448	247.290	262.187	309.886	310.578	313.061	271.306	286.728	273.526	221.578	318.791	161.870	112.643	167.600	156.260	108.895	108.251	106.174	147.522	132.291	145.469	196.988	100.492	52.738
31.000	289.020	302.939	249.247	261.685	309.838	310.602	313.228	273.717	286.490	287.779	222.055	316.451	130.548	116.535	166.884	156.976	109.229	108.561	106.245	145.207	132.220	131.074	196.057	103.380	39.788
32.000	300.145	285.129	247.672	267.558	310.339	310.984	313.037	277.322	286.943	297.066	223.106	306.496	118.659	134.678	168.125	150.650	108.776	107.845	106.006	141.291	131.981	121.715	194.959	113.264	30.584
33.000	305.660	257.054	243.327	274.171	310.387	312.392	313.896	280.760	287.278	302.580	224.180	290.930	113.813	161.393	172.518	144.037	108.203	107.009	105.744	137.687	131.885	116.368	194.028	127.660	40.465
34.000	308.071	226.090	236.928	280.450	310.936	312.751	313.896	283.553	287.373	305.063	225.016	269.611	111.283	192.739	179.537	138.260	107.678	106.102	105.147	134.893	131.861	113.885	193.336	148.668	47.549
35.000	310.172	248.030	230.387	285.368	311.987	313.944	314.613	285.869	287.301	306.734	225.278	247.982	109.229	172.375	187.892	133.700	107.152	105.434	104.884	132.864	131.861	111.903	192.930	171.253	41.728
36.000	310.984	263.118	228.239	288.567	312.440	313.920	314.613	287.445	287.301	308.573	226.042	227.785	108.155	156.021	191.593	129.832	106.579	104.837	104.502	131.002	131.981	110.972	192.595	191.306	39.337
37.000	311.700	274.362	234.255	291.909	312.774	314.398	314.851	288.949	287.182	309.122	226.281	223.368	107.343	144.705	185.004	126.967	106.317	104.693	104.502	129.975	132.076	109.922	192.142	195.508	40.555
38.000	312.631	282.240	241.560	293.843	313.156	314.947	315.186	289.737	286.967	309.575	226.615	233.204	106.890	137.496	177.698	124.676	105.935	104.431	104.431	129.044	132.052	109.301	191.903	186.006	39.427
39.000	313.085	287.898	248.435	295.609	313.156	315.090	315.329	291.026	287.301	310.435	226.735	242.061	106.365	131.527	170.393	123.148	105.625	104.168	104.168	127.994	132.363	109.062	191.617	177.603	39.112
40.000	313.467	291.742	254.189	296.994	313.634	315.114	315.114	291.742	287.063	310.602	227.284	247.982	105.935	127.278	164.210	121.500	105.434	104.049	104.120	127.349	132.220	108.609	191.473	171.038	43.172
41.000	313.753	295.156	259.895	298.212	313.514	315.210	315.377	292.243	286.991	310.865	227.116	253.210	105.815	124.413	158.982	120.354	105.481	103.977	104.025	126.824	132.363	108.083	191.330	165.833	44.210
42.000	313.753	297.304	264.741	299.453	314.064	315.639	315.496	292.506	286.752	311.199	227.331	257.340	105.625	122.049	154.541	119.590	105.171	103.882	103.929	126.323	132.315	107.988	191.115	161.703	39.157
43.000	314.159	299.310	268.274	300.074	314.111	315.210	315.353	293.007	286.800	311.199	227.427	260.778	105.720	120.259	150.984	118.994	105.123	103.810	103.882	125.726	132.315	107.725	191.044	158.647	36.810
44.000	314.302	300.718	271.593	300.599	314.255	315.496	315.520	293.413	286.394	311.151	227.570	263.380	105.505	118.850	147.666	118.206	104.932	103.715	103.786	125.296	132.363	107.725	190.877	155.544	42.450
45.000	314.135	301.864	274.290	301.435	314.446	315.233	315.544	293.795	286.824	311.581	227.785	266.126	105.410	117.585	144.944	117.728	104.861	103.882	103.858	124.843	132.482	107.463	190.853	153.013	46.105
46.000	314.541	303.106	276.344	301.482	314.207	315.233	315.591	294.225	286.800	311.724	227.451	268.322	105.195	116.654	142.891	117.299	104.765	103.882	103.786	124.843	132.387	107.391	190.924	150.841	40.059
47.000	315.162	303.249	278.230	301.697	314.398	315.448	315.854	294.583	286.609	311.867	227.522	270.136	105.457	115.914	140.862	117.060	104.550	103.715	103.882	124.628	132.602	107.272	190.781	149.194	35.186
48.000	314.469	304.395	280.116	301.984	314.207	315.591	315.711	294.631	286.705	311.891	227.952	271.617	105.171	115.389	139.143	116.750	104.598	103.762	103.667	124.294	132.578	107.272	190.757	147.427	39.879
49.000	314.875	304.610	281.285	302.222	314.565	315.520	315.568	295.204	286.538	311.843	227.928	272.930	104.980	114.696	137.663	116.559	104.526	103.739	103.643	123.983	132.530	107.152	190.495	145.923	47.143
50.000	314.517	305.708	283.529	302.819	314.446	315.400	315.663	295.013	286.561	311.891	227.809	274.338	104.956	114.147	136.111	116.248	104.598	103.643	103.762	124.079	132.506	107.057	190.566	144.753	42.856
51.000	314.469	305.803	284.556	302.986	314.159	315.257	315.424	294.774	286.752	312.249	228.119	275.675	105.052	113.909	134.869	115.842	104.479	103.643	103.762	123.983	132.649	107.057	190.542	143.559	34.915
52.000	314.947	306.472	285.821	302.891	314.255	315.400	315.735	295.371	286.394	311.819	228.071	276.320	104.861	113.431	133.938	115.914	104.526	103.500	103.643	123.768	132.482	106.985	190.423	142.795	37.848
53.000	314.804	306.281	286.418	302.986	314.278	315.329	315.830	295.490	286.490	311.915	228.024	277.824	104.717	113.288	132.864	115.675	104.407	103.524	103.619	123.768	132.673	107.081	190.399	141.602	46.827
54.000	314.517	306.687	287.612	303.344	314.302	315.281	315.854	295.227	286.394	312.010	227.809	278.397	104.789	112.858	132.005	115.413	104.407	103.571	103.643	123.792	132.745	106.890	190.304	140.957	44.751
55.000	314.469	306.639	288.304	303.512	315.019	315.544	315.568	295.204	286.251	311.843	228.119	279.089	104.598	112.810	131.288	115.508	104.526	103.619	103.739	123.482	132.554	106.747	190.399	140.408	35.637
56.000	314.684	307.116	288.495	303.368	314.541	315.424	315.759	295.514	286.538	312.010	228.048	279.662	104.884	112.596	130.501	115.341	104.502	103.595	103.643	123.434	132.506	106.723	190.304	139.835	35.863
57.000	315.162	306.902	288.996	303.893	314.565	315.782	315.973	295.633	286.538	312.392	228.167	280.163	104.693	112.261	129.904	115.246	104.383	103.500	103.595	123.482	132.578	106.603	190.304	139.000	45.609
58.000	314.756	307.212	289.880	303.822	314.637	315.687	315.902	295.609	286.418	312.392	227.904	280.712	104.741	112.046	129.402	115.078	104.455	103.548	103.571	123.434	132.721	106.747	190.304	138.474	46.646
59.000	314.732	307.856	290.572	303.989	314.899	315.568	315.663	295.347	286.323	312.273	228.119	281.261	104.693	111.975	129.092	115.031	104.502	103.619	103.619	123.458	132.649	106.627	190.328	137.997	37.803
60.000	314.995	308.000	290.859	303.917	314.995	315.568	315.615	295.729	286.418	312.178	228.215	281.405	104.550	111.664	128.448	114.983	104.359	103.619	103.428	123.243	132.530	106.603	190.256	137.663	34.419
61.000	315.186	307.785	290.835	304.084	314.493	315.711	315.950	295.681	286.442	312.392	228.048	281.906	104.646	111.736	128.089	114.864	104.335	103.524	103.524	123.267	132.673	106.651	190.137	137.066	43.217
62.000	314.995	308.047	291.694	303.917	314.613	315.735	315.926	295.586	286.490	312.464	228.239	282.336	104.574	111.521	127.779	114.864	104.359	103.548	103.524	123.267	132.578	106.603	190.160	136.827	48.226
63.000	315.042	308.047	292.052	303.989	314.804	315.663	315.878	295.777	286.561	312.369	228.143	282.956	104.598	111.569	127.493	114.768	104.264	103.452	103.524	123.291	132.745	106.556	190.304	136.541	39.698
64.000	314.589	308.573	292.482	304.371	314.637	315.186	315.520	295.681	286.394	312.536	228.143	283.195	104.383	111.330	127.206	114.744	104.216	103.500	103.500	123.171	132.888	106.556	190.208	136.230	33.562
65.000	315.281	308.716	292.792	304.037	314.971	315.711	315.878	295.800	286.538	312.392	228.215	283.577	104.431	111.187	126.753	114.649	104.288	103.643	103.667	123.243	132.721	106.388	190.208	135.872	40.285
66.000	315.424	308.382	292.936	304.371	314.971	315.663	315.926	295.800	286.514	312.464	228.000	283.529	104.526	111.187	126.585	114.673	104.407	103.524	103.548	123.148	132.602	106.460	190.184	135.442	48.677
67.000	315.615	308.429	293.127	304.132	314.541	315.520	315.639	295.920	286.514	312.607	228.286	283.625	104.574	111.139	126.180	114.768	104.359	103.428	103.452	123.004	132.673	106.579	190.089	135.466	42.631
68.000	315.114	308.477	293.413	304.299	314.589	315.615	315.973	295.824	286.705	312.727	227.857	284.198	104.407	111.139	126.060	114.386	104.264	103.762	103.739	123.219	132.673	106.484	190.208	135.060	33.742
69.000	315.353	308.501	293.628	304.323	314.756	315.878	315.902	295.896	286.299	312.345	228.048	284.842	104.550	111.044	125.845	114.505	104.216	103.380	103.500	123.243	132.816	106.508	190.184	134.822	37.577
70.000	314.851	309.050	293.700	304.419	314.780	315.639	315.806	295.753	286.657	312.607	228.119	284.771	104.431	110.757	125.583	114.314	104.120	103.452	103.619	123.052	132.530	106.341	190.256	134.440	47.549
71.000	315.233	308.835	293.819	304.419	314.780	315.687	315.902	295.991	286.418	312.751	228.239	285.105	104.574	110.901	125.344	114.434	104.264	103.548	103.691	123.219	132.673	106.365	190.280	134.392	45.248
72.000	315.281	308.955	294.010	304.466	314.899	315.782	315.782	295.944	286.203	312.488	228.310	285.248	104.455	110.686	125.225	114.291	104.168	103.619	103.619	123.124	132.721	106.412	190.137	134.153	35.547
73.000	315.066	308.835	294.201	304.275	314.708	315.472	315.687	295.777	286.657	312.822	228.215	285.201	104.431	110.566	125.057	114.458	104.049	103.500	103.715	123.195	132.816	106.556	190.160	134.010	35.367
74.000	315.090	309.122	294.272	304.538	314.780	315.544	315.973	296.302	286.681	312.727	228.286	285.463	104.502	110.614	124.938	114.458	104.311	103.452	103.643	123.124	132.649	106.317	190.232	133.724	45.925
75.000	315.400	308.716	294.440	304.562	315.042	315.591	315.830	295.896	286.418	312.655	228.406	285.774	104.097	110.662	124.747	114.243	104.144	103.357	103.524	123.004	132.745	106.460	189.993	133.580	47.233
76.000	315.162	308.811	294.392	304.323	314.541	315.639	315.902	295.872	286.728	312.774	228.119	285.988	104.431	110.542	124.508	114.386	104.288	103.619	103.643	122.957	132.649	106.365	190.089	133.461	37.577
77.000	315.400	309.074	294.822	304.705	315.090	315.759	315.806	295.920	286.466	312.440	228.143	286.251	104.622	110.566	124.461	114.243	104.240	103.404	103.571	123.004	132.625	106.365	190.113	133.318	33.833
78.000	315.186	308.907	295.013	304.299	314.875	315.950	315.735	296.135	286.514	312.965	228.286	286.251	104.502	110.280	124.365	114.219	104.216	103.619	103.667	122.861	132.530	106.174	190.137	133.079	43.398
79.000	315.186	308.931	295.204	304.490	314.851	315.639	315.854	296.206	286.633	312.774	228.310	286.728	104.240	110.351	124.222	114.100	104.120	103.500	103.643	122.981	132.769	106.269	190.065	132.673	48.722
80.000	315.424	309.026	295.251	304.753	315.114	316.021	315.902	296.111	286.394	312.894	228.286	286.585	104.240	110.113	124.055	114.243	104.240	103.524	103.548	122.981	132.649	106.245	190.137	132.458	40.194
81.000	315.520	309.456	295.418	304.347	314.660	315.830	316.236	295.968	286.585	312.774	228.262	286.943	104.216	110.256	123.983	114.243	104.097	103.500	103.428	122.933	132.792	106.197	190.065	132.387	32.930
82.000	315.186	309.170	295.705	304.777	314.828	315.615	315.711	295.991	286.299	312.703	228.262	287.182	104.431	110.184	123.816	114.123	104.001	103.524	103.619	123.004	132.578	106.341	189.946	132.363	40.285
83.000	315.257	309.122	295.538	304.395	314.828	315.782	315.902	296.254	286.561	312.679	228.215	287.158	104.288	110.137	123.744	114.100	104.264	103.500	103.595	122.813	132.673	106.221	190.089	132.220	49.083
84.000	315.496	309.408	295.944	304.657	314.899	315.591	315.950	296.230	286.776	312.822	228.310	287.182	104.216	110.184	123.721	114.147	104.168	103.548	103.548	122.957	132.697	106.269	190.160	132.076	42.856
85.000	315.400	309.384	296.182	304.657	314.899	315.854	315.950	296.135	286.179	312.774	228.239	287.158	104.479	110.304	123.458	113.980	104.073	103.404	103.548	122.933	132.649	106.197	189.946	132.005	33.607
86.000	315.568	309.384	295.609	304.156	314.350	315.663	315.973	296.612	286.752	313.085	228.286	287.110	104.288	110.017	123.315	114.076	104.097	103.524	103.452	122.790	132.649	106.221	190.017	132.005	37.217
87.000	315.186	309.432	295.944	304.825	315.066	315.735	315.711	295.944	286.275	312.583	228.358	287.397	104.502	110.017	123.506	114.004	104.097	103.476	103.595	122.837	132.816	106.293	190.017	131.790	47.955
88.000	315.424	309.623	296.517	304.848	314.995	315.759	315.711	296.039	286.347	312.989	228.143	287.851	104.455	110.017	123.386	114.123	104.264	103.428	103.548	122.813	132.578	106.269	190.017	131.861	45.383
89.000	315.663	309.193	296.159	304.371	315.066	315.735	315.973	296.326	286.442	312.512	228.286	287.851	104.144	110.089	123.315	114.123	104.192	103.500	103.500	122.837	132.792	106.197	190.041	131.694	35.276
