-----------------------------------------------------
BloodHound 307 VOC Analyser V2017.1
RoboScientific Ltd 
Espace North
Wisbech Road
Littleport
Cambridgeshire, UK
CB6 1RA 
-----------------------------------------------------
Date = 31/03/2022
Time = 12:30:19
Data is protected by RoboScientific Limited
-----------------------------------------------------
Name of the experiment = "36b_Day 42"
-----------------------------------------------------
Repeat No. = 3/4
-----------------------------------------------------
Experimental Time (in sec) and Flow Profile :
-----------------------------------------------------
Baseline = 2.00
Absorb = 4.00
Pause = 1.00
Desorb = 5.00
Flush = 20.00
Wait = 5.00
Higher Flow (V) = 4.00
Medium Flow (V) = 3.00
Low Flow (V) = 1.00
-----------------------------------------------------
Total Profile Time = 37 in sec
-----------------------------------------------------
Acquired data point per second = 4
--------------------------------------------------
Total data point stored  = 128
-----------------------------------------------------
Acquired sensor responses from 24 sensors
-----------------------------------------------------

Data Points	 Sen-1	 Sen-2	 Sen-3	 Sen-4	 Sen-5	 Sen-6	 Sen-7	 Sen-8	 Sen-9	 Sen-10	 Sen-11	 Sen-12	 Sen-13	 Sen-14	 Sen-15	 Sen-16	 Sen-17	 Sen-18	 Sen-19	 Sen-20	 Sen-21	 Sen-22	 Sen-23	 Sen-24	Humidity (%r.h.)
0.000	313.252	309.695	291.718	304.156	314.684	315.591	315.663	297.018	286.705	311.151	228.382	282.240	106.150	109.659	127.803	114.529	104.216	103.333	103.452	122.026	132.387	107.773	189.874	137.090	34.509
1.000	313.538	309.862	291.670	304.347	314.541	315.568	315.520	296.684	286.705	311.318	228.453	282.073	106.054	109.707	127.612	114.505	104.216	103.380	103.595	122.002	132.387	107.701	189.778	136.899	36.269
2.000	313.467	309.647	292.005	304.395	314.756	315.759	315.830	296.899	287.015	311.342	228.430	282.336	106.484	109.683	127.469	114.696	104.144	103.476	103.571	121.930	132.387	107.654	189.874	136.684	45.789
3.000	312.894	309.790	291.837	304.443	314.780	315.782	315.830	296.755	286.633	311.509	228.597	282.933	106.174	109.540	127.540	114.434	104.049	103.261	103.476	121.930	132.434	107.678	189.755	136.493	47.413
4.000	313.371	309.742	291.599	304.299	314.613	315.663	315.878	297.113	286.919	311.366	228.453	282.479	106.102	109.588	127.397	114.505	104.216	103.380	103.691	122.145	132.339	107.606	189.683	136.374	39.157
5.000	313.562	310.053	292.243	304.490	314.995	315.568	315.591	296.827	286.728	311.199	228.358	282.956	106.365	109.778	127.325	114.434	104.120	103.357	103.548	121.978	132.434	107.725	189.826	136.517	33.427
6.000	313.204	309.862	292.219	304.252	314.875	315.448	315.544	297.018	286.824	311.557	228.692	282.956	105.983	109.683	127.302	114.601	104.192	103.428	103.524	121.858	132.339	107.558	189.778	136.326	40.239
7.000	313.347	309.790	292.028	304.395	314.947	315.663	315.735	297.042	286.561	311.270	228.597	283.076	106.293	109.635	127.302	114.625	104.240	103.380	103.500	121.882	132.291	107.511	189.778	136.564	48.090
8.000	313.347	310.053	292.196	304.252	314.732	315.639	315.735	296.803	286.633	311.318	228.597	282.837	106.126	109.516	127.111	114.625	104.240	103.404	103.548	121.715	132.267	107.582	189.731	136.421	43.939
9.000	313.347	309.862	291.885	304.204	314.732	315.520	315.711	297.066	286.919	311.581	228.525	282.813	106.102	109.540	127.087	114.577	104.216	103.357	103.476	121.835	132.315	107.725	189.731	136.302	34.825
10.000	311.605	308.143	292.028	303.846	314.374	315.496	315.759	296.731	287.206	311.008	228.024	279.519	106.723	110.542	127.349	114.553	104.120	103.476	103.571	121.882	132.100	108.036	189.969	138.832	35.547
11.000	297.710	272.142	288.209	302.939	314.255	315.591	315.568	295.371	288.137	306.520	226.114	270.232	120.092	145.278	130.644	115.771	104.479	103.595	103.571	123.267	130.930	112.166	192.333	148.167	39.879
12.000	278.086	244.210	279.901	300.336	314.159	315.615	315.711	292.816	288.495	294.177	224.586	292.697	141.339	176.027	138.713	118.277	104.670	103.667	103.619	125.917	130.620	124.819	193.622	127.540	34.825
13.000	260.706	270.709	268.083	296.326	313.467	314.708	315.400	289.593	288.782	284.890	223.846	304.395	159.364	148.382	151.557	122.551	105.434	103.953	103.834	129.331	130.334	135.060	194.935	115.460	43.172
14.000	241.417	286.728	253.902	290.644	313.085	314.708	315.114	285.965	288.949	276.105	222.581	310.912	177.078	131.408	165.213	127.851	105.529	104.120	103.858	132.936	130.429	143.034	195.604	107.845	51.474
15.000	222.390	298.116	240.820	284.795	312.416	314.159	314.541	282.503	288.328	267.057	221.817	315.878	196.463	120.378	178.462	133.771	106.317	104.574	104.144	135.992	130.405	151.103	196.511	103.380	42.180
16.000	236.594	305.899	232.464	277.895	311.748	314.159	314.589	279.471	287.803	257.579	221.244	318.886	182.855	113.001	188.871	140.289	106.866	105.028	104.311	139.191	130.811	161.130	197.227	100.038	29.952
17.000	253.377	311.008	232.679	271.831	310.936	313.204	314.135	275.794	287.564	247.099	220.623	321.990	166.454	107.487	186.675	146.949	107.701	105.648	104.837	143.082	131.336	172.064	197.728	97.985	35.592
18.000	266.341	315.019	239.746	265.242	310.124	312.416	313.944	271.760	287.254	235.496	220.026	322.968	153.133	103.285	178.033	153.992	108.585	106.412	105.171	146.782	131.694	183.524	198.206	96.362	50.482
19.000	277.680	318.671	245.786	258.820	309.289	311.628	313.324	268.203	286.203	223.631	220.169	324.353	140.933	100.587	169.056	160.056	109.301	107.320	105.911	150.769	132.291	195.031	198.397	95.240	50.527
20.000	287.182	320.796	253.377	252.446	308.191	309.981	312.416	264.120	285.988	219.620	219.477	325.427	132.912	98.128	160.915	165.953	110.304	108.680	106.484	154.517	132.792	198.755	198.755	94.404	35.186
21.000	294.105	323.016	259.346	246.573	307.355	308.597	312.010	260.635	285.463	229.910	219.095	326.549	125.630	96.147	154.828	171.993	111.832	110.328	107.200	158.528	133.365	189.396	198.994	93.736	29.411
22.000	300.002	323.947	264.335	240.987	306.161	306.806	310.960	257.030	284.795	239.483	219.501	326.788	118.898	94.738	148.955	178.486	112.667	111.879	108.036	162.634	134.010	179.226	199.208	92.733	43.127
23.000	305.541	326.120	269.038	235.353	305.159	304.777	309.886	253.306	284.126	248.125	218.856	327.242	114.434	93.449	143.989	183.500	113.646	114.028	109.062	166.430	134.631	170.274	199.185	92.566	54.226
24.000	308.740	326.335	272.237	229.838	303.917	302.509	308.740	249.176	283.888	256.767	219.262	327.934	110.662	92.518	140.337	189.062	114.816	116.033	110.280	170.178	134.798	162.467	199.280	92.255	43.308
25.000	312.058	327.385	275.317	225.326	302.724	300.145	307.188	245.786	283.315	260.921	218.785	327.839	107.845	91.706	136.970	193.861	115.986	118.349	111.808	173.544	135.586	157.693	199.376	91.611	29.185
26.000	312.583	327.719	276.176	224.944	301.984	298.976	306.233	245.953	283.553	260.993	219.095	328.244	107.009	92.088	135.848	194.147	116.582	119.399	112.739	173.879	135.657	157.573	199.208	90.799	34.374
27.000	312.751	327.719	276.558	226.400	302.127	299.453	306.114	246.740	283.338	260.062	219.167	328.674	106.556	91.563	135.896	192.739	116.678	119.161	113.001	172.995	135.538	158.838	199.304	91.491	50.752
28.000	312.965	327.695	277.275	227.713	302.079	300.026	306.066	247.695	283.888	258.749	219.023	327.886	106.866	90.847	136.135	191.402	116.463	118.922	112.978	172.064	135.347	160.342	199.280	91.682	51.610
29.000	313.324	327.671	277.203	228.835	301.888	299.549	305.899	248.292	284.150	257.484	219.429	328.292	106.484	90.990	136.302	190.542	116.391	118.850	113.121	171.563	135.013	161.679	199.328	92.160	35.953
30.000	313.658	328.555	277.489	227.570	301.864	298.761	305.159	247.218	283.386	259.751	219.405	328.722	105.648	91.324	135.610	191.569	116.988	119.877	113.670	172.733	135.395	159.149	199.232	91.730	28.915
31.000	306.329	327.003	278.588	224.968	300.885	298.140	304.681	251.993	283.911	252.948	219.763	326.024	113.527	92.446	134.464	194.243	117.609	120.880	114.458	167.719	134.822	165.475	198.635	93.664	41.954
32.000	283.816	323.804	278.373	230.435	301.435	299.167	305.565	258.725	285.081	226.878	220.766	321.942	135.275	94.786	134.655	188.298	117.036	119.471	113.646	161.011	133.986	191.808	197.275	96.815	53.595
33.000	240.462	319.769	276.702	238.862	302.509	300.909	306.758	264.192	285.941	253.831	222.055	318.218	180.468	99.871	136.230	180.348	116.009	117.442	112.452	154.899	133.055	166.478	196.153	102.067	44.616
34.000	263.977	311.438	274.410	247.027	303.893	303.201	308.119	269.086	286.633	273.598	222.557	310.268	155.544	107.749	140.074	171.109	114.792	115.413	110.877	149.814	132.315	144.968	195.341	108.919	31.396
35.000	282.455	300.360	269.731	256.170	305.230	305.803	309.742	272.954	287.015	286.561	223.750	302.509	136.541	118.134	144.252	162.181	113.503	113.049	109.683	145.541	132.124	131.838	194.792	116.415	34.825
36.000	292.912	284.986	264.240	264.168	306.496	308.095	310.650	276.344	287.087	293.867	224.467	293.819	126.800	133.509	149.719	154.684	112.333	110.901	108.370	142.294	131.933	125.153	194.076	125.654	46.962
37.000	299.525	267.415	257.531	270.972	307.642	309.910	311.843	279.304	287.110	298.617	224.586	283.864	120.665	152.536	156.809	147.594	111.115	108.991	107.367	139.501	131.861	120.426	193.574	135.442	47.955
38.000	302.891	247.528	250.680	276.606	308.573	311.223	312.655	281.834	287.110	301.339	225.254	273.789	116.559	172.303	165.690	141.841	110.065	107.511	106.723	136.732	131.742	117.179	193.097	145.923	39.292
39.000	305.541	229.480	241.990	280.951	309.504	312.464	313.276	283.840	287.063	303.344	225.684	263.523	114.171	189.468	174.452	137.305	109.134	106.388	105.911	134.488	131.909	115.460	192.810	156.021	35.367
40.000	307.021	227.546	233.873	285.081	310.459	313.324	313.634	285.439	287.301	304.705	225.875	253.807	112.643	192.595	183.094	133.676	108.370	105.553	105.505	133.031	131.981	114.028	192.643	164.950	40.420
41.000	307.880	242.061	228.119	287.636	310.936	313.658	313.992	286.824	287.015	306.018	226.066	245.141	111.306	178.319	190.542	130.859	107.892	105.243	105.099	131.647	131.909	112.834	192.333	173.592	44.751
42.000	309.098	255.383	227.689	290.333	311.509	314.446	314.565	288.161	286.991	306.615	225.971	237.692	110.542	164.807	192.667	128.543	107.200	104.574	104.765	130.453	131.933	112.166	191.975	181.208	41.999
43.000	309.933	264.144	231.223	292.315	312.225	314.899	314.804	289.546	286.800	307.307	226.353	231.247	109.659	154.852	188.418	126.418	106.770	104.455	104.502	129.498	132.100	111.378	191.832	187.343	39.247
44.000	310.172	272.046	236.547	293.532	312.225	314.517	314.756	289.975	287.158	308.167	226.639	225.589	109.182	147.379	183.046	125.034	106.484	104.288	104.359	128.543	132.052	110.948	191.832	193.383	39.292
45.000	310.674	277.418	241.106	294.845	312.846	314.947	314.995	290.715	287.134	308.620	226.472	221.148	108.943	142.103	177.889	123.888	106.221	104.168	104.359	127.970	132.052	110.590	191.593	197.657	41.593
46.000	310.912	281.572	246.024	296.111	312.894	315.257	315.090	291.241	286.991	308.883	226.806	218.283	108.537	137.806	173.186	122.861	106.030	104.025	104.311	127.278	132.076	110.137	191.521	200.975	40.826
47.000	311.079	285.057	249.844	297.090	313.061	315.042	314.971	291.837	287.158	309.241	226.878	218.761	108.083	134.416	168.841	121.882	105.720	103.739	103.977	126.753	132.172	109.898	191.378	201.047	40.420
48.000	311.939	287.564	253.497	297.543	313.324	315.233	314.995	292.530	286.967	309.528	226.973	221.602	107.869	131.623	164.926	121.047	105.481	103.882	104.073	126.323	132.148	109.397	191.378	197.967	41.097
49.000	311.891	290.166	257.173	298.498	313.467	315.496	315.400	292.912	286.776	309.552	227.284	225.445	107.725	129.116	161.417	120.498	105.481	103.786	104.025	125.774	132.124	109.301	191.139	194.028	41.052
50.000	312.058	292.124	260.730	299.358	313.729	315.233	315.353	293.389	286.896	309.838	226.902	228.788	107.487	127.469	158.456	119.829	105.123	103.619	104.073	125.559	132.339	109.158	191.211	190.686	39.337
51.000	312.416	293.341	263.309	299.310	313.801	315.496	315.615	293.962	286.967	310.053	227.451	231.867	107.200	125.893	155.472	119.280	105.386	103.786	104.001	125.248	132.243	108.919	191.044	187.845	39.427
52.000	311.796	294.678	265.600	299.763	313.538	315.138	315.377	293.867	286.442	310.363	227.475	234.422	107.200	124.413	152.942	118.922	105.171	103.667	103.906	124.747	132.243	108.633	191.163	184.789	42.135
53.000	312.321	296.373	268.227	300.289	313.682	315.210	315.257	294.153	286.919	310.411	227.307	237.024	106.938	123.171	150.841	118.445	105.052	103.691	103.834	124.461	132.243	108.537	191.187	182.354	43.082
54.000	312.679	297.281	269.874	300.599	313.968	315.400	315.591	294.463	287.063	310.626	227.642	239.411	107.129	122.503	149.217	118.206	105.052	103.619	103.739	124.317	132.291	108.489	190.972	180.348	39.608
55.000	313.013	298.212	271.664	301.148	313.944	315.591	315.591	294.726	287.110	310.578	227.451	241.011	106.938	121.453	147.260	117.752	105.004	103.691	103.762	124.294	132.411	108.442	190.853	178.248	38.525
56.000	313.276	298.832	272.977	301.100	313.777	315.377	315.663	294.869	286.919	310.769	227.594	243.446	106.794	120.545	145.923	117.704	104.813	103.500	103.739	123.912	132.387	108.322	190.877	175.884	40.646
57.000	312.989	299.525	274.601	301.435	313.992	315.472	315.400	294.774	286.896	310.841	227.498	245.141	106.866	119.686	144.562	117.442	104.813	103.595	103.786	123.577	132.220	108.251	190.829	174.070	44.616
58.000	312.607	300.551	275.794	301.458	314.111	315.305	315.329	295.060	286.728	310.841	227.666	246.764	106.508	119.041	143.464	117.251	104.861	103.571	103.739	123.673	132.339	108.107	190.781	172.351	41.864
59.000	312.727	301.148	276.773	301.315	313.920	315.233	315.520	295.108	286.490	311.056	227.737	248.555	106.412	118.707	142.557	117.060	104.813	103.571	103.858	123.601	132.243	108.012	190.781	170.942	38.254
60.000	313.419	301.482	277.704	301.888	314.350	315.591	315.735	295.132	286.776	311.127	227.594	249.844	106.293	118.158	141.626	116.893	104.717	103.595	103.715	123.458	132.363	107.988	190.757	169.510	38.435
61.000	312.583	302.055	278.492	301.936	314.064	315.329	315.496	295.084	286.728	310.865	227.666	251.539	106.341	117.537	140.718	116.773	104.741	103.715	103.762	123.434	132.315	107.916	190.733	167.982	43.533
62.000	313.514	302.175	278.755	301.817	314.493	315.735	315.878	295.729	286.633	310.960	227.785	252.637	106.365	117.084	139.859	116.750	104.622	103.500	103.643	123.386	132.482	107.916	190.471	166.884	44.300
63.000	313.061	302.795	280.259	302.485	314.947	315.711	315.353	295.681	286.514	310.865	227.642	253.568	106.341	116.678	139.143	116.702	104.765	103.595	103.643	123.171	132.243	107.749	190.709	165.666	39.788
64.000	312.727	303.297	280.474	302.103	314.302	315.305	315.639	295.442	286.728	311.485	228.095	254.786	106.388	116.368	138.618	116.368	104.670	103.643	103.762	123.195	132.196	107.797	190.590	164.329	36.765
65.000	313.419	303.607	281.381	302.318	313.920	315.400	315.687	295.777	286.872	311.103	227.642	256.147	106.197	116.153	138.092	116.391	104.598	103.524	103.595	123.004	132.387	107.916	190.518	163.374	40.691
66.000	313.347	303.512	281.787	302.413	314.302	315.496	315.687	295.586	286.585	311.127	227.904	256.791	106.030	115.890	137.519	116.272	104.550	103.571	103.595	123.004	132.506	107.797	190.518	162.276	44.977
67.000	313.180	303.917	282.431	302.366	314.207	315.591	315.687	296.111	286.848	311.056	227.642	258.009	106.078	115.556	137.018	116.081	104.455	103.428	103.524	123.028	132.363	107.749	190.518	161.202	43.082
68.000	313.634	304.252	283.052	302.509	314.398	315.544	315.448	296.063	286.752	311.247	227.809	258.868	106.269	115.317	136.517	116.224	104.670	103.500	103.667	122.957	132.339	107.821	190.495	160.605	37.217
69.000	313.204	304.084	282.933	303.273	314.589	315.615	315.544	295.705	286.442	311.485	227.833	259.942	106.174	115.055	136.111	116.033	104.526	103.500	103.571	122.981	132.411	107.701	190.590	159.650	37.487
70.000	313.395	304.777	283.673	302.724	314.302	315.711	315.711	295.848	286.752	311.151	227.976	260.468	106.054	114.840	135.801	116.129	104.502	103.476	103.548	122.861	132.411	107.630	190.518	158.862	43.759
71.000	313.634	305.016	283.983	302.986	314.422	315.735	315.663	296.135	286.872	311.438	227.952	261.494	105.887	114.673	135.299	115.842	104.311	103.476	103.571	122.885	132.482	107.773	190.471	157.812	45.293
72.000	313.634	305.135	284.508	302.724	314.589	315.544	315.759	296.182	286.657	311.223	227.928	262.688	106.078	114.434	134.965	115.890	104.479	103.404	103.715	122.766	132.434	107.582	190.447	156.642	39.833
73.000	313.538	305.374	284.508	302.915	314.135	315.591	315.544	296.254	286.633	311.270	227.833	263.356	105.792	114.267	134.488	115.795	104.359	103.571	103.762	122.981	132.387	107.463	190.304	155.926	35.728
74.000	313.992	305.374	285.153	303.010	314.398	315.305	315.878	296.397	286.705	311.342	227.857	263.953	105.768	114.028	134.249	115.771	104.288	103.309	103.500	122.742	132.434	107.511	190.304	155.425	39.924
75.000	313.825	305.589	285.368	302.939	314.326	315.472	315.878	296.373	286.538	311.509	227.857	264.431	105.792	113.813	133.915	115.604	104.431	103.476	103.643	122.646	132.530	107.582	190.280	154.804	45.789
76.000	313.801	305.803	285.583	303.130	314.326	315.329	315.735	296.087	286.561	311.628	228.000	265.004	105.887	113.718	133.700	115.580	104.383	103.500	103.643	122.742	132.482	107.511	190.232	154.302	43.217
77.000	313.992	305.565	285.368	303.034	314.374	315.759	315.854	296.254	286.776	311.605	228.334	265.600	105.744	113.885	133.413	115.460	104.455	103.595	103.524	122.622	132.387	107.415	190.232	153.873	36.856
78.000	313.538	305.684	286.108	303.201	314.207	315.568	315.806	296.421	286.657	311.557	227.666	266.030	105.768	113.622	133.174	115.508	104.311	103.428	103.691	122.718	132.458	107.391	190.375	153.133	36.946
79.000	313.538	306.376	286.323	303.225	314.302	315.162	315.448	296.230	286.967	311.700	228.358	266.723	105.792	113.694	132.816	115.484	104.288	103.500	103.500	122.551	132.434	107.511	190.351	152.679	43.669
80.000	313.873	306.233	286.824	303.416	315.066	315.615	315.711	296.278	286.538	311.557	227.976	266.890	105.815	113.407	132.745	115.508	104.359	103.571	103.786	122.766	132.339	107.415	190.280	152.273	46.105
81.000	313.562	305.994	286.633	303.273	314.255	315.377	315.639	296.326	286.466	311.342	228.000	268.012	105.672	113.360	132.506	115.365	104.335	103.428	103.643	122.599	132.458	107.272	190.160	151.748	40.646
82.000	313.371	306.329	286.705	302.962	314.756	315.615	315.544	296.469	286.824	311.843	227.904	267.964	105.744	113.192	132.339	115.627	104.407	103.452	103.595	122.503	132.530	107.439	190.304	151.438	35.186
83.000	313.873	306.281	286.967	303.321	314.613	315.329	315.663	296.564	286.943	311.628	228.191	268.441	105.839	113.145	132.124	115.365	104.455	103.595	103.667	122.479	132.315	107.296	190.375	150.889	39.021
84.000	313.443	306.352	287.134	303.034	314.469	315.472	315.544	296.349	286.681	311.915	228.095	269.134	105.672	113.049	131.957	115.508	104.383	103.476	103.643	122.575	132.482	107.296	190.328	150.459	46.015
85.000	314.040	306.376	287.325	303.631	314.660	315.568	315.878	296.373	286.896	311.891	228.215	269.253	105.457	113.001	131.909	115.413	104.359	103.404	103.524	122.479	132.411	107.320	190.208	150.125	44.345
86.000	313.944	306.567	287.683	303.392	314.422	315.496	315.830	296.373	286.728	311.700	227.880	269.683	105.744	112.882	131.670	115.293	104.288	103.428	103.595	122.455	132.458	107.248	190.184	149.719	37.036
87.000	313.634	306.496	287.755	303.321	314.374	315.639	315.759	296.564	286.872	311.772	228.167	270.447	105.625	112.930	131.575	115.269	104.383	103.428	103.571	122.408	132.339	107.296	190.160	149.432	36.043
88.000	313.944	306.543	287.564	303.440	314.541	315.544	316.045	296.397	286.919	311.987	228.430	270.065	105.529	112.882	131.384	115.317	104.407	103.357	103.404	122.384	132.387	107.272	190.113	149.217	43.037
89.000	313.300	306.711	288.018	303.464	314.565	315.472	315.663	296.397	286.609	311.724	228.310	270.638	105.601	112.810	131.193	115.174	104.359	103.548	103.595	122.360	132.339	107.224	190.256	148.859	46.827
