-----------------------------------------------------
BloodHound 307 VOC Analyser V2017.1
RoboScientific Ltd 
Espace North
Wisbech Road
Littleport
Cambridgeshire, UK
CB6 1RA 
-----------------------------------------------------
Date = 31/03/2022
Time = 12:02:28
Data is protected by RoboScientific Limited
-----------------------------------------------------
Name of the experiment = "36b_Day 33"
-----------------------------------------------------
Repeat No. = 3/4
-----------------------------------------------------
Experimental Time (in sec) and Flow Profile :
-----------------------------------------------------
Baseline = 2.00
Absorb = 4.00
Pause = 1.00
Desorb = 5.00
Flush = 20.00
Wait = 5.00
Higher Flow (V) = 4.00
Medium Flow (V) = 3.00
Low Flow (V) = 1.00
-----------------------------------------------------
Total Profile Time = 37 in sec
-----------------------------------------------------
Acquired data point per second = 4
--------------------------------------------------
Total data point stored  = 128
-----------------------------------------------------
Acquired sensor responses from 24 sensors
-----------------------------------------------------

Data Points	 Sen-1	 Sen-2	 Sen-3	 Sen-4	 Sen-5	 Sen-6	 Sen-7	 Sen-8	 Sen-9	 Sen-10	 Sen-11	 Sen-12	 Sen-13	 Sen-14	 Sen-15	 Sen-16	 Sen-17	 Sen-18	 Sen-19	 Sen-20	 Sen-21	 Sen-22	 Sen-23	 Sen-24	Humidity (%r.h.)
0.000	313.562	310.411	293.962	304.156	314.828	315.830	315.687	296.182	286.633	311.342	228.644	284.986	105.911	108.919	125.344	114.649	104.288	103.452	103.476	122.575	132.339	107.558	189.635	133.891	34.013
1.000	313.586	310.339	294.153	304.562	314.995	315.973	316.141	296.230	286.561	311.390	228.644	285.153	105.959	108.847	125.344	114.601	104.144	103.571	103.548	122.622	132.315	107.582	189.778	133.891	43.172
2.000	313.586	310.244	293.604	304.299	314.947	315.806	315.854	296.421	286.943	311.175	228.573	285.368	105.863	108.847	125.296	114.601	104.097	103.452	103.500	122.646	132.387	107.701	189.611	133.843	48.632
3.000	313.682	310.530	293.962	304.228	314.875	315.424	315.735	296.278	286.896	311.199	228.334	285.559	105.935	108.967	125.296	114.577	104.168	103.380	103.452	122.766	132.625	107.678	189.731	133.747	41.638
4.000	313.252	310.554	294.249	304.275	314.613	315.544	315.639	295.968	286.919	311.461	228.692	285.965	105.911	108.871	125.225	114.696	104.192	103.524	103.524	122.527	132.315	107.487	189.659	133.533	33.291
5.000	313.634	310.745	293.986	304.299	314.780	315.591	315.663	296.230	286.728	311.605	228.406	285.917	105.983	108.943	125.153	114.673	104.144	103.428	103.524	122.766	132.434	107.582	189.707	133.246	37.893
6.000	313.514	310.912	294.344	304.252	314.517	315.591	315.663	296.015	286.227	311.223	228.549	286.060	106.054	108.919	125.153	114.529	104.097	103.404	103.571	122.670	132.363	107.534	189.659	133.127	47.413
7.000	313.634	310.578	293.795	303.989	314.995	315.544	315.639	296.230	286.728	311.557	228.644	286.275	105.815	108.752	125.177	114.458	104.097	103.357	103.571	122.813	132.506	107.511	189.683	133.055	46.150
8.000	313.562	310.554	294.344	304.252	314.637	315.735	315.830	296.397	286.585	311.485	228.621	286.370	105.911	108.800	124.962	114.482	104.120	103.500	103.500	122.527	132.434	107.487	189.611	133.103	36.675
9.000	313.705	310.626	294.082	304.395	314.637	315.544	315.830	296.349	286.585	311.461	228.310	286.490	105.815	108.752	124.795	114.505	104.073	103.476	103.643	122.622	132.434	107.463	189.587	132.912	33.607
10.000	311.748	308.811	294.105	303.846	314.541	315.138	315.568	296.182	287.278	310.912	228.167	281.524	106.579	110.208	125.177	114.601	104.192	103.428	103.548	122.551	132.005	108.036	189.898	135.538	42.405
11.000	298.403	270.972	290.715	302.986	314.446	315.210	315.568	294.917	288.065	305.732	225.756	276.009	121.071	148.740	128.209	115.866	104.502	103.643	103.524	123.673	131.002	112.619	192.285	143.918	39.247
12.000	271.640	261.566	282.193	299.954	313.896	315.377	315.639	291.646	288.782	290.978	223.989	299.071	147.809	158.552	136.946	118.683	104.813	103.834	103.619	127.087	130.548	128.257	194.123	120.522	39.788
13.000	239.340	286.943	269.325	294.798	313.658	314.971	315.400	287.469	288.424	277.036	222.795	310.315	180.921	130.787	150.459	124.270	105.386	104.144	103.929	131.432	130.286	142.772	195.556	108.370	50.617
14.000	249.247	303.177	254.046	287.206	312.583	314.111	315.090	283.004	288.495	261.327	221.435	316.857	169.152	115.341	164.473	130.763	105.887	104.717	104.120	135.490	130.572	156.427	196.964	102.234	45.699
15.000	274.911	311.915	240.295	278.993	312.130	313.825	314.708	278.062	288.089	242.395	220.432	321.631	144.299	106.245	179.346	139.214	106.556	105.266	104.311	140.456	131.050	175.980	198.015	98.009	31.712
16.000	293.318	318.265	232.584	270.304	311.103	312.488	314.111	272.834	287.421	222.199	219.907	323.971	125.607	101.065	188.322	148.692	107.511	106.317	104.789	146.018	131.575	197.442	198.588	95.311	32.614
17.000	305.684	321.799	238.122	261.256	309.742	311.079	313.467	266.555	286.514	242.109	219.167	326.382	113.312	96.815	180.611	157.883	108.370	107.558	105.457	152.440	132.458	176.147	199.041	94.022	48.090
18.000	313.801	324.902	246.430	252.112	308.979	309.432	312.751	259.895	285.320	259.847	219.095	327.910	105.123	93.759	169.725	166.215	109.492	109.397	106.317	158.743	133.413	158.385	199.590	92.399	53.053
19.000	319.674	326.693	254.905	243.183	307.355	306.806	311.939	253.019	284.126	273.312	218.498	328.316	99.274	91.754	159.220	175.025	111.092	111.855	107.415	166.120	134.416	144.347	199.972	91.635	38.841
20.000	323.637	328.459	262.592	235.233	305.970	303.679	310.077	246.024	283.219	283.434	218.522	329.581	95.932	91.205	151.796	183.882	112.691	114.577	108.728	173.401	135.657	135.037	200.211	91.109	28.509
21.000	325.714	329.796	268.991	227.212	304.252	301.029	308.191	239.220	282.264	290.930	217.925	329.868	92.900	89.391	144.419	192.166	114.291	117.872	110.829	180.802	136.779	127.063	200.378	90.131	39.202
22.000	327.862	330.059	273.861	220.504	302.366	297.066	305.756	232.942	280.903	296.540	218.045	330.441	91.038	89.414	138.594	198.110	116.224	121.572	113.216	187.057	137.997	121.405	200.283	89.200	53.820
23.000	329.772	330.966	277.561	221.148	300.718	293.580	303.153	227.570	279.757	301.029	218.474	330.894	89.701	88.483	134.535	197.346	118.182	125.487	115.747	192.428	139.000	117.299	200.665	89.605	47.504
24.000	330.321	330.894	281.261	227.116	298.307	288.973	299.907	223.416	278.110	304.395	218.021	331.300	88.340	87.934	131.169	191.235	120.259	129.188	118.731	196.272	140.241	114.338	200.736	89.104	31.035
25.000	331.467	331.491	283.888	231.103	295.800	285.057	296.827	222.270	277.561	306.543	217.997	331.682	88.101	87.958	128.973	187.081	122.742	133.485	122.312	196.821	141.745	112.190	200.856	88.794	31.171
26.000	331.205	332.112	284.986	231.461	295.132	283.434	294.535	222.342	277.203	306.185	217.710	332.088	87.815	87.146	126.776	187.033	124.103	135.156	124.317	196.726	142.318	112.094	200.927	89.391	47.368
27.000	331.300	331.491	285.678	230.077	294.583	283.625	294.129	222.270	277.537	306.114	217.901	331.181	88.006	87.075	126.753	188.274	124.246	135.013	124.962	196.773	141.888	112.882	200.927	89.796	54.136
28.000	331.563	331.658	286.203	229.217	294.559	284.365	294.129	222.963	277.633	306.066	218.140	331.802	88.030	86.908	127.087	189.158	124.198	134.297	124.890	196.821	141.721	112.715	200.856	88.388	40.239
29.000	331.539	332.661	286.060	227.785	294.487	284.293	294.296	222.748	277.824	305.063	217.949	332.279	87.719	87.385	127.493	190.877	124.174	134.225	125.105	196.558	141.315	113.479	200.593	89.534	28.193
30.000	332.016	332.613	286.991	231.820	294.201	282.455	292.554	222.652	277.346	306.543	218.092	331.587	87.887	86.573	126.681	186.842	125.177	136.015	126.633	196.654	141.817	112.046	200.832	88.865	37.217
31.000	330.966	332.518	287.254	234.780	292.506	280.307	290.739	223.058	277.370	305.302	218.379	330.775	89.200	87.170	125.559	183.786	126.848	138.785	128.615	196.415	141.793	113.550	200.498	89.701	52.873
32.000	326.502	331.133	288.376	233.968	292.005	281.094	291.312	230.674	279.853	297.137	218.307	329.199	92.232	88.650	124.867	184.455	127.015	137.543	127.827	189.014	139.453	121.500	199.925	91.062	48.767
33.000	323.064	330.584	288.233	230.053	293.198	283.983	293.747	240.366	281.691	283.840	219.405	327.218	97.054	89.820	125.081	188.537	125.296	134.607	125.248	179.035	136.875	136.875	199.065	94.332	32.614
34.000	316.642	329.128	286.848	223.273	295.395	287.421	296.731	249.510	283.935	264.144	220.838	322.204	102.378	90.918	126.347	195.222	123.100	130.835	122.240	169.343	134.893	153.992	197.824	97.842	31.035
35.000	308.238	326.836	285.248	219.931	297.663	291.241	299.740	257.484	285.392	241.202	221.649	317.263	111.402	92.470	127.970	198.874	121.142	127.898	119.590	162.419	133.891	177.293	196.773	103.166	45.428
36.000	295.347	324.353	283.243	229.886	299.907	294.487	302.270	263.309	285.821	225.302	221.912	310.650	124.294	94.905	131.217	188.991	118.970	124.198	116.845	155.806	132.840	194.816	195.818	108.847	52.061
37.000	276.487	321.345	279.901	240.963	301.745	297.925	304.562	268.155	286.394	244.902	222.891	303.917	144.610	98.152	134.464	178.104	117.036	120.832	114.434	150.865	132.363	174.523	195.054	116.391	41.007
38.000	248.244	316.666	275.627	249.987	303.321	300.862	306.925	271.426	287.206	259.823	223.679	295.681	172.040	102.115	139.143	168.173	115.126	117.513	112.381	146.735	132.052	158.552	194.672	124.174	31.802
39.000	222.437	312.082	270.208	259.107	305.087	303.917	308.501	274.720	286.943	271.235	224.156	287.922	196.749	107.057	144.562	159.220	113.431	114.458	110.423	143.655	132.029	147.761	194.076	131.623	37.487
40.000	238.074	305.254	263.643	266.532	306.424	306.496	309.910	277.489	287.349	278.898	224.228	279.495	182.115	113.312	151.629	152.249	112.214	112.476	109.229	141.077	131.909	139.978	193.718	139.191	47.323
41.000	251.324	297.376	257.197	272.476	307.785	308.620	311.127	279.543	287.039	284.771	224.872	272.357	168.054	122.049	158.791	146.114	111.068	110.017	107.869	138.904	131.766	134.655	193.503	147.093	45.293
42.000	262.497	286.728	249.319	277.298	308.859	310.578	312.273	281.261	287.039	288.686	225.159	264.287	156.761	132.291	166.979	141.029	110.065	108.442	107.152	137.090	132.029	129.975	193.145	154.637	38.390
43.000	272.213	274.768	240.963	281.166	309.289	311.533	312.679	283.076	287.325	292.196	225.517	257.245	146.878	144.204	175.932	136.875	109.134	107.081	106.388	135.084	132.005	127.063	192.858	161.799	36.540
44.000	280.641	260.181	234.016	284.986	310.339	312.464	313.514	284.365	287.110	294.296	225.493	249.653	139.573	158.051	183.882	133.747	108.418	106.341	105.839	133.938	131.957	124.556	192.691	169.056	41.683
45.000	286.347	244.234	228.573	287.564	310.912	312.989	313.610	285.439	287.301	296.278	225.875	242.109	133.485	174.094	190.184	131.336	107.869	105.768	105.314	132.649	131.981	122.909	192.452	176.147	44.616
46.000	291.097	228.955	228.215	289.522	311.461	313.634	313.968	287.087	286.919	297.663	226.042	236.284	128.734	190.280	192.046	129.020	107.200	105.195	105.052	131.288	132.029	121.118	192.118	182.521	41.187
47.000	294.416	230.674	231.724	291.384	311.915	313.896	314.446	288.137	286.848	298.952	226.090	230.316	125.344	188.943	188.227	126.991	107.057	105.028	104.908	130.477	132.124	119.734	191.855	188.322	39.202
48.000	297.352	246.120	236.308	292.983	312.416	314.660	314.780	288.829	286.872	300.312	226.472	225.636	122.646	173.091	183.356	125.678	106.484	104.526	104.502	129.713	131.981	118.779	191.736	193.359	39.653
49.000	298.546	259.680	241.369	294.416	312.345	314.422	314.660	289.546	286.609	301.315	226.878	221.172	120.689	160.629	178.295	124.532	106.460	104.431	104.502	129.068	132.124	117.752	191.641	197.800	41.593
50.000	300.885	268.704	246.621	295.586	312.798	314.851	315.090	290.071	287.182	302.342	226.902	219.047	118.731	151.414	172.828	123.148	106.030	104.144	104.383	128.567	132.243	116.845	191.450	200.808	40.691
51.000	301.817	274.792	250.966	296.469	313.085	314.995	314.923	290.668	287.015	303.297	226.735	222.103	117.322	144.634	168.054	122.193	105.815	104.216	104.288	128.137	132.220	116.009	191.450	197.848	40.736
52.000	303.321	280.283	255.072	297.495	313.371	315.329	315.377	291.145	286.705	303.703	226.735	225.708	116.391	139.143	163.732	121.262	105.648	104.073	104.168	127.540	132.243	115.269	191.378	193.622	41.503
53.000	304.013	284.031	258.701	298.188	313.419	315.138	315.400	291.384	286.896	304.299	227.045	229.671	115.198	135.060	160.223	120.545	105.529	103.858	103.977	127.158	132.243	114.768	191.282	190.328	40.465
54.000	305.230	287.612	261.828	298.522	313.610	315.042	315.377	291.814	286.705	304.562	227.093	232.727	114.410	131.957	157.406	120.140	105.457	103.906	104.001	126.824	132.363	114.314	191.187	186.723	39.337
55.000	305.756	290.310	264.311	299.429	313.753	315.424	315.281	292.076	286.561	305.135	227.045	235.878	113.885	129.092	154.374	119.686	105.386	103.929	104.025	126.418	132.291	113.813	191.187	183.715	39.924
56.000	306.233	292.625	266.818	299.644	314.111	315.114	315.257	292.697	286.943	305.469	227.188	238.409	113.169	126.705	152.178	119.209	105.147	103.786	103.858	126.132	132.339	113.288	191.139	180.874	43.308
57.000	306.687	294.368	268.871	300.026	313.825	315.210	315.472	292.888	286.728	305.970	227.212	241.035	112.787	124.819	150.125	118.779	105.099	103.786	103.810	125.774	132.506	113.025	190.924	178.104	42.721
58.000	306.782	296.182	270.805	300.360	313.873	315.138	315.377	292.983	286.776	306.281	227.188	243.279	112.333	123.577	148.549	118.659	105.052	103.715	103.834	125.559	132.387	112.858	191.044	176.051	39.292
59.000	307.475	297.519	272.381	300.647	313.849	315.257	315.281	293.318	286.896	306.352	227.260	245.380	111.927	122.169	146.854	118.301	104.956	103.691	103.906	125.487	132.554	112.524	190.877	174.046	38.299
60.000	308.119	298.594	273.526	300.671	314.159	315.472	315.353	293.628	286.657	306.711	227.331	247.481	111.545	120.736	145.302	117.872	104.932	103.739	103.977	125.344	132.387	112.261	190.924	171.802	41.999
61.000	307.952	299.549	275.007	300.909	314.111	315.305	315.448	293.509	286.585	306.830	227.379	249.032	111.163	119.853	143.965	117.800	104.884	103.691	103.834	125.057	132.434	111.999	190.805	169.987	44.436
62.000	308.907	300.289	275.890	300.933	314.135	315.568	315.830	293.962	286.919	307.164	227.451	250.966	111.115	119.018	142.843	117.657	104.741	103.595	103.786	125.034	132.458	111.832	190.757	168.436	41.007
63.000	308.620	301.053	277.036	301.220	314.016	315.400	315.472	293.914	286.633	307.642	227.475	252.446	110.781	118.349	142.008	117.513	104.765	103.595	103.762	124.843	132.434	111.736	190.805	166.955	37.352
64.000	309.098	302.031	278.134	301.291	314.064	315.520	315.806	294.392	286.728	307.307	227.642	254.189	110.399	117.537	141.029	117.394	104.765	103.667	103.643	124.604	132.554	111.474	190.662	165.332	38.886
65.000	309.790	302.198	279.017	301.530	314.398	315.735	315.663	294.272	286.514	307.475	227.331	255.287	110.423	116.893	140.146	117.155	104.813	103.619	103.595	124.652	132.506	111.306	190.686	163.732	44.526
66.000	309.742	303.010	280.354	301.697	314.326	315.615	315.591	294.153	286.442	307.785	227.713	257.054	110.208	116.439	139.310	117.036	104.789	103.691	103.715	124.508	132.482	111.211	190.566	162.563	43.849
67.000	309.933	303.392	280.378	301.673	314.135	315.186	315.639	294.440	286.991	308.238	227.475	258.080	110.017	115.938	138.570	116.917	104.502	103.643	103.762	124.413	132.578	110.972	190.471	161.178	38.886
68.000	309.790	304.013	281.309	301.936	314.302	315.305	315.496	294.678	286.848	308.382	227.809	259.393	109.707	115.532	137.782	116.773	104.765	103.548	103.715	124.317	132.506	110.853	190.638	160.008	36.495
69.000	310.077	304.395	281.906	302.342	314.350	315.424	315.353	294.607	286.585	308.453	227.618	260.324	109.468	115.126	137.328	116.559	104.646	103.571	103.762	124.150	132.506	110.710	190.542	158.958	41.683
70.000	309.933	304.777	282.455	302.270	314.446	315.305	315.496	294.559	286.609	308.286	228.095	261.279	109.206	114.816	136.899	116.606	104.670	103.691	103.619	124.174	132.411	110.710	190.328	157.931	45.609
71.000	310.220	304.992	282.694	301.864	314.278	315.591	315.759	294.845	286.752	308.453	228.048	262.592	109.229	114.338	136.135	116.535	104.479	103.595	103.715	124.007	132.530	110.447	190.256	157.000	42.180
72.000	310.411	305.230	283.386	302.604	314.660	315.639	315.735	294.678	286.418	308.453	227.666	263.261	109.086	114.076	135.729	116.535	104.526	103.643	103.715	124.079	132.530	110.375	190.399	156.165	36.269
73.000	310.483	305.589	283.482	302.413	314.302	315.878	315.830	295.084	286.728	308.668	227.904	264.096	108.991	113.837	135.180	116.272	104.550	103.571	103.715	123.983	132.506	110.328	190.375	155.329	37.893
74.000	310.244	305.517	284.413	302.389	314.469	315.544	315.711	294.941	286.347	308.573	227.857	264.431	108.871	113.670	134.655	116.344	104.574	103.643	103.643	123.912	132.411	110.280	190.256	154.589	44.661
75.000	310.841	305.947	284.580	302.389	314.469	315.782	315.568	295.108	286.776	308.644	227.785	265.290	108.800	113.455	134.559	116.129	104.407	103.524	103.643	123.816	132.554	110.208	190.256	153.777	45.473
76.000	310.697	306.424	285.392	302.724	314.541	315.424	315.687	295.132	286.872	308.859	228.071	265.935	108.633	113.216	134.010	116.177	104.646	103.715	103.691	123.792	132.530	109.993	190.328	153.013	39.292
77.000	310.697	306.185	285.654	302.843	314.398	315.233	315.472	294.893	286.299	308.811	227.809	266.961	108.704	113.121	133.819	116.153	104.455	103.548	103.667	123.625	132.315	109.922	190.304	152.393	35.457
78.000	311.247	306.711	285.869	302.437	314.064	315.353	315.878	295.514	286.800	308.931	228.048	267.773	108.585	112.763	133.318	116.009	104.431	103.500	103.667	123.649	132.458	110.017	190.256	151.796	40.510
79.000	310.912	306.973	286.896	303.177	314.374	315.472	315.520	295.227	286.561	309.146	227.904	267.892	108.418	112.691	133.055	115.938	104.479	103.595	103.571	123.625	132.482	109.707	190.160	151.271	46.556
80.000	311.294	306.782	286.275	303.058	314.469	315.615	315.615	295.204	286.514	309.313	228.071	268.513	108.298	112.452	132.840	115.986	104.431	103.595	103.667	123.577	132.387	109.898	190.160	150.865	42.947
81.000	310.960	306.902	286.752	303.010	314.422	315.448	315.663	295.323	286.609	309.504	227.904	269.134	107.988	112.572	132.458	115.986	104.455	103.524	103.810	123.721	132.530	109.778	190.113	150.387	36.179
82.000	311.533	306.878	286.943	302.557	314.804	315.687	315.735	295.466	286.800	309.241	227.857	269.540	108.251	112.309	132.172	115.723	104.335	103.619	103.595	123.625	132.506	109.635	190.160	149.790	37.081
83.000	311.223	307.307	287.158	302.700	314.541	315.448	315.759	295.227	286.538	309.241	227.833	269.969	108.179	112.094	132.076	115.771	104.335	103.428	103.548	123.625	132.554	109.635	190.160	149.361	44.842
84.000	311.867	307.236	287.230	302.915	314.469	315.950	315.687	295.514	286.466	309.170	227.952	270.280	108.179	112.070	131.885	115.675	104.311	103.500	103.691	123.625	132.602	109.540	189.969	148.859	46.105
85.000	311.461	307.546	288.280	303.058	314.517	315.615	315.591	295.275	286.466	309.480	228.262	270.757	107.988	112.118	131.742	115.866	104.383	103.428	103.643	123.434	132.506	109.444	190.065	148.310	39.698
86.000	311.509	307.284	287.874	302.867	314.350	315.424	315.926	295.538	286.442	309.623	228.167	271.330	107.988	111.808	131.265	115.842	104.431	103.548	103.691	123.506	132.530	109.516	190.089	147.785	34.825
87.000	311.700	307.737	288.018	303.130	314.708	315.544	315.687	295.514	286.800	309.456	227.976	271.784	108.012	111.760	131.169	115.771	104.455	103.643	103.619	123.458	132.482	109.397	190.137	147.475	39.788
88.000	311.438	308.047	287.970	303.249	314.446	315.687	315.520	295.538	286.752	309.528	228.191	272.094	107.797	111.808	131.121	115.532	104.359	103.428	103.667	123.410	132.482	109.349	190.137	147.188	46.601
89.000	311.676	307.952	288.376	303.297	314.660	315.639	315.663	295.442	286.609	309.766	228.119	272.404	107.701	111.664	130.906	115.627	104.383	103.548	103.643	123.386	132.554	109.349	190.065	146.735	43.849
