-----------------------------------------------------
BloodHound 307 VOC Analyser V2017.1
RoboScientific Ltd 
Espace North
Wisbech Road
Littleport
Cambridgeshire, UK
CB6 1RA 
-----------------------------------------------------
Date = 31/03/2022
Time = 11:32:39
Data is protected by RoboScientific Limited
-----------------------------------------------------
Name of the experiment = "36b_Day 25"
-----------------------------------------------------
Repeat No. = 3/4
-----------------------------------------------------
Experimental Time (in sec) and Flow Profile :
-----------------------------------------------------
Baseline = 2.00
Absorb = 4.00
Pause = 1.00
Desorb = 5.00
Flush = 20.00
Wait = 5.00
Higher Flow (V) = 4.00
Medium Flow (V) = 3.00
Low Flow (V) = 1.00
-----------------------------------------------------
Total Profile Time = 37 in sec
-----------------------------------------------------
Acquired data point per second = 4
--------------------------------------------------
Total data point stored  = 128
-----------------------------------------------------
Acquired sensor responses from 24 sensors
-----------------------------------------------------

Data Points	 Sen-1	 Sen-2	 Sen-3	 Sen-4	 Sen-5	 Sen-6	 Sen-7	 Sen-8	 Sen-9	 Sen-10	 Sen-11	 Sen-12	 Sen-13	 Sen-14	 Sen-15	 Sen-16	 Sen-17	 Sen-18	 Sen-19	 Sen-20	 Sen-21	 Sen-22	 Sen-23	 Sen-24	Humidity (%r.h.)
0.000	314.541	309.480	294.034	304.108	314.756	315.663	315.782	294.917	286.323	312.273	229.193	281.739	104.431	109.922	125.320	114.911	104.168	103.524	103.524	123.792	132.411	106.365	189.420	137.496	44.797
1.000	314.828	309.671	294.201	304.037	314.708	315.591	315.711	294.941	286.609	312.607	228.955	281.763	104.693	109.898	125.153	114.864	104.240	103.571	103.476	123.959	132.458	106.365	189.396	137.305	47.594
2.000	314.469	309.671	294.010	304.013	314.732	315.472	315.591	294.678	286.514	312.989	229.050	281.596	104.717	109.731	125.081	114.935	104.383	103.619	103.667	123.888	132.482	106.317	189.349	137.352	39.112
3.000	314.923	309.408	294.272	303.917	315.186	315.496	315.663	295.132	286.514	312.560	229.241	282.407	104.526	110.041	125.153	115.031	104.335	103.571	103.571	123.888	132.434	106.293	189.396	137.018	33.787
4.000	315.233	309.742	294.368	303.703	314.708	315.830	316.069	295.013	286.466	312.679	229.408	282.360	104.431	109.850	124.962	114.864	104.240	103.452	103.404	123.912	132.530	106.365	189.396	136.732	41.638
5.000	315.281	309.623	294.487	303.917	314.828	315.711	315.878	295.156	286.896	312.655	229.002	282.336	104.550	109.755	124.747	114.816	104.192	103.524	103.452	123.888	132.458	106.365	189.301	136.684	48.451
6.000	314.995	309.910	294.368	304.252	314.899	315.496	315.639	294.893	286.585	312.464	229.384	282.407	104.574	109.778	124.676	114.744	104.240	103.524	103.428	123.816	132.482	106.508	189.349	136.660	41.999
7.000	315.090	310.244	295.060	304.132	314.804	315.233	315.926	295.180	286.657	312.727	229.098	282.407	104.502	109.802	124.676	114.720	104.120	103.619	103.619	123.912	132.506	106.269	189.373	136.517	33.562
8.000	315.162	309.528	294.774	304.061	314.828	315.735	315.926	295.060	286.800	312.870	229.002	282.813	104.574	109.611	124.532	114.792	104.073	103.428	103.571	123.888	132.482	106.365	189.325	136.302	38.209
9.000	314.422	309.886	294.487	303.941	314.565	315.186	315.615	294.965	286.466	312.774	229.026	283.100	104.741	109.588	124.532	114.887	104.288	103.476	103.500	123.673	132.458	106.365	189.373	136.135	47.774
10.000	314.589	307.880	294.249	303.559	314.565	315.663	315.782	295.227	286.919	312.560	228.215	278.635	105.219	111.760	124.890	114.816	104.216	103.404	103.595	123.864	132.220	106.603	189.659	140.957	44.345
11.000	311.581	280.402	292.124	302.748	314.326	315.257	315.687	294.201	287.803	310.745	226.687	255.478	107.940	141.148	127.612	115.938	104.311	103.595	103.571	124.771	131.360	108.298	191.450	161.703	40.781
12.000	306.902	236.356	285.415	300.599	314.016	315.305	315.448	292.363	288.161	307.761	225.565	277.943	112.643	180.707	133.533	117.776	104.598	103.810	103.739	126.394	130.906	111.044	192.715	140.671	43.939
13.000	301.315	236.952	276.248	297.925	313.682	314.828	315.496	290.333	288.328	303.750	224.849	290.310	117.466	181.972	142.604	120.665	105.028	104.168	103.762	128.424	130.668	115.269	193.479	129.379	36.630
14.000	296.445	254.261	267.009	294.535	313.252	315.090	315.424	288.614	288.567	299.501	224.538	298.498	123.028	165.069	152.130	124.461	105.457	104.264	103.906	130.310	130.572	119.089	194.147	120.975	33.607
15.000	290.906	266.842	257.555	290.548	313.228	314.517	315.233	286.752	288.519	296.349	223.535	303.201	128.949	152.416	162.085	128.376	105.720	104.479	103.977	132.243	130.572	122.909	194.744	115.771	46.060
16.000	285.487	275.317	248.292	286.442	312.894	314.064	315.233	285.057	288.352	292.792	223.153	307.116	133.556	142.867	170.680	131.623	105.959	104.622	104.144	133.676	130.692	126.132	195.126	111.139	50.166
17.000	280.187	282.861	240.271	282.622	312.297	313.873	314.828	283.195	288.304	289.259	222.986	310.363	139.310	135.610	179.131	135.968	106.412	105.171	104.359	135.538	130.787	129.426	195.699	108.800	38.029
18.000	274.434	288.758	235.090	278.659	311.748	313.228	314.398	281.620	288.161	286.275	222.342	312.321	145.016	130.572	185.911	139.883	106.794	105.386	104.479	136.970	130.954	132.792	195.890	106.508	30.268
19.000	269.301	293.246	231.820	275.341	311.533	313.061	314.326	280.259	287.851	282.980	222.270	315.305	150.912	125.941	189.444	143.822	107.320	105.744	104.574	138.570	131.097	136.039	196.224	104.741	41.954
20.000	263.523	296.803	232.679	271.258	311.247	312.560	314.183	278.397	287.492	279.447	221.817	316.236	156.093	122.599	187.749	147.475	107.654	106.293	104.813	140.480	131.408	139.358	196.582	103.022	52.692
21.000	257.842	299.572	235.496	267.725	310.602	312.154	313.968	276.702	287.373	276.272	221.936	317.096	161.584	119.185	182.736	151.008	108.036	106.818	105.362	141.984	131.575	142.581	196.606	102.187	41.909
22.000	252.542	302.557	239.650	264.240	310.172	311.533	313.371	274.720	287.158	272.739	221.745	318.074	167.099	116.415	177.794	154.326	108.418	107.272	105.457	143.607	131.599	145.804	196.606	101.399	29.682
23.000	247.576	304.681	243.685	261.447	309.575	310.554	313.228	273.240	286.824	269.826	221.745	318.814	172.088	114.720	173.497	157.573	109.086	108.012	105.839	145.302	132.005	149.194	196.821	100.492	37.036
24.000	242.897	306.233	247.075	258.056	309.313	310.101	312.512	271.640	286.919	267.033	221.458	319.459	176.887	112.619	168.054	160.844	109.444	108.680	106.245	147.045	132.052	152.488	197.060	99.537	51.880
25.000	238.743	307.761	251.014	255.239	308.620	309.265	312.607	270.136	286.657	263.452	221.649	320.438	180.635	111.306	165.046	163.661	109.707	109.253	106.436	148.501	132.339	155.257	196.940	99.107	46.511
26.000	238.313	308.119	252.446	255.430	308.477	309.074	312.058	269.993	286.466	264.240	221.315	320.080	181.423	111.020	162.849	163.327	110.113	109.588	106.723	148.740	132.458	154.923	197.108	98.964	31.486
27.000	240.056	308.238	252.780	256.194	308.788	309.456	312.178	270.351	286.538	265.720	221.435	319.722	180.229	111.211	162.801	162.324	110.137	109.420	106.818	148.453	132.411	153.252	196.964	99.489	32.795
28.000	240.915	307.618	252.828	257.388	308.453	309.217	312.273	270.924	286.728	267.821	221.721	320.342	178.415	111.593	163.494	161.130	110.017	109.325	106.723	148.024	132.267	151.629	196.940	100.205	49.083
29.000	242.825	307.498	251.802	258.797	309.217	309.695	312.297	271.020	286.609	268.847	221.578	319.578	177.221	111.903	163.541	160.080	110.089	109.325	106.961	147.570	132.052	150.053	196.845	99.680	50.346
30.000	254.571	307.642	252.924	257.698	308.788	309.313	312.249	270.686	286.466	269.205	221.315	319.411	164.162	111.760	162.419	160.366	110.208	109.611	106.961	148.239	132.291	149.432	196.893	99.608	34.961
31.000	283.840	302.676	253.640	257.770	308.597	309.432	312.082	272.954	286.681	284.747	222.700	316.928	134.750	115.818	161.799	160.605	110.351	109.635	107.129	145.660	132.148	133.485	195.866	102.784	30.494
32.000	296.445	285.033	252.255	263.858	308.740	309.886	312.392	276.296	286.991	294.774	223.440	308.525	123.052	133.198	162.969	154.947	109.826	108.633	106.627	142.008	132.076	123.912	194.577	110.566	44.977
33.000	302.509	259.202	248.817	270.471	309.432	311.270	312.822	279.614	287.182	300.408	224.658	296.111	116.582	159.984	166.860	148.501	109.206	107.678	106.197	138.880	131.909	118.516	193.932	123.052	50.121
34.000	306.090	229.814	243.183	276.081	310.005	312.010	313.538	281.787	287.349	303.846	225.207	279.208	113.097	190.184	173.258	142.485	108.442	106.675	105.768	136.374	131.790	115.532	193.192	140.217	40.149
35.000	308.000	241.441	236.833	280.784	310.674	312.774	313.777	283.744	287.110	305.660	225.780	260.706	110.972	177.651	181.447	137.734	107.964	106.078	105.457	134.488	131.838	113.383	192.858	159.292	35.412
36.000	310.101	258.247	230.101	284.938	311.461	313.705	314.111	285.583	287.540	306.878	225.875	242.085	109.683	161.106	188.155	133.413	107.320	105.410	104.932	132.864	131.861	111.975	192.404	175.980	40.736
37.000	310.888	270.136	228.931	287.803	311.652	314.111	314.278	287.063	286.943	307.761	226.353	226.711	108.800	150.029	191.855	130.739	106.938	105.147	104.717	131.575	131.981	111.115	192.046	191.736	42.631
38.000	311.748	278.062	232.798	290.620	312.583	314.422	314.828	288.137	287.134	308.334	226.520	219.310	108.227	141.554	186.723	128.161	106.627	104.717	104.550	130.501	132.029	110.423	191.760	200.259	40.465
39.000	312.321	283.601	238.600	292.601	312.607	314.708	315.377	289.020	286.967	309.122	226.902	225.780	107.367	135.442	180.253	126.060	106.388	104.598	104.479	129.546	132.005	109.444	191.545	193.264	41.007
40.000	312.249	288.686	244.687	294.153	312.727	314.446	314.971	289.737	286.919	310.005	227.164	232.512	107.009	130.739	174.213	124.508	106.078	104.431	104.311	128.949	132.076	109.062	191.354	186.221	41.593
41.000	312.249	292.291	250.178	295.896	313.109	314.565	314.851	290.238	286.800	310.077	227.188	238.743	107.033	127.493	169.056	123.410	105.768	104.288	104.168	128.280	132.196	108.895	191.282	180.826	39.292
42.000	312.751	294.463	255.096	296.373	313.324	314.923	314.851	290.668	286.800	310.650	227.331	242.968	106.436	124.771	164.091	122.288	105.601	104.073	103.977	127.755	132.172	108.680	191.115	176.290	39.021
43.000	312.942	296.445	258.964	297.734	313.514	314.708	315.090	291.193	286.919	310.674	227.379	246.430	106.197	122.981	159.984	121.309	105.529	104.073	103.953	127.421	132.387	108.513	191.115	172.661	43.578
44.000	313.371	298.092	262.425	298.403	313.777	315.090	315.210	291.527	286.633	310.626	227.546	249.820	106.174	121.214	156.356	120.641	105.505	104.120	104.097	127.134	132.243	108.107	191.091	169.080	43.894
45.000	313.252	299.572	265.577	299.023	313.944	315.114	315.186	291.837	286.776	310.865	227.498	252.876	106.126	119.972	153.491	120.092	105.266	104.001	103.882	126.896	132.243	107.988	190.900	166.335	38.931
46.000	313.849	300.599	268.131	299.286	313.705	315.162	315.520	292.100	286.848	311.103	227.475	255.454	105.935	118.636	150.817	119.447	105.147	103.977	104.049	126.729	132.291	107.892	190.805	163.876	37.126
47.000	313.324	301.721	270.375	299.572	313.753	315.186	315.448	292.291	286.466	311.008	227.809	257.603	105.887	117.728	148.477	119.113	105.123	104.049	103.882	126.347	132.315	107.845	190.757	161.632	42.495
48.000	313.777	302.103	272.309	300.169	313.801	315.305	315.568	292.840	286.967	311.270	227.212	259.513	105.792	116.988	146.400	118.683	104.956	103.906	103.715	126.180	132.315	107.582	190.877	159.531	45.293
49.000	313.968	303.440	274.863	300.408	313.968	315.424	315.711	292.721	286.490	311.151	227.379	261.924	105.696	116.391	144.872	118.445	104.980	103.715	103.691	125.965	132.458	107.701	190.733	157.311	40.239
50.000	313.610	303.965	275.914	300.408	313.682	314.971	315.448	292.768	286.561	311.652	227.522	263.285	105.672	115.938	143.082	118.086	104.813	103.786	103.786	125.869	132.554	107.558	190.590	155.950	35.728
51.000	313.920	304.395	277.895	300.957	313.777	315.042	315.353	293.341	286.848	311.605	227.761	264.693	105.505	115.150	141.435	117.800	104.837	103.906	103.715	125.654	132.339	107.391	190.614	154.708	40.059
52.000	314.159	304.395	278.874	301.172	314.207	315.400	315.806	293.174	286.728	311.772	227.761	265.624	105.219	114.935	140.002	117.561	104.693	103.691	103.715	125.654	132.387	107.343	190.662	153.228	45.609
53.000	314.231	304.657	280.283	301.864	314.231	315.210	315.711	293.461	286.442	311.772	227.761	266.914	105.290	114.529	139.071	117.418	104.908	103.715	103.739	125.416	132.339	107.343	190.733	152.154	43.623
54.000	314.517	305.207	281.238	301.745	314.637	315.233	315.591	293.198	286.705	311.963	227.522	268.083	105.195	114.195	137.901	117.203	104.837	103.691	103.715	125.439	132.458	107.248	190.590	151.318	36.675
55.000	313.992	305.732	282.264	301.649	314.207	315.472	315.448	293.222	286.394	311.939	228.000	268.656	105.195	113.789	137.018	116.941	104.622	103.691	103.810	125.320	132.411	107.152	190.614	150.411	36.359
56.000	314.278	305.803	282.933	301.936	314.302	315.257	315.496	293.509	286.514	311.987	227.713	269.826	104.956	113.574	136.254	116.797	104.574	103.619	103.643	125.225	132.506	107.152	190.542	149.695	43.217
57.000	314.302	306.281	283.673	302.175	314.446	315.520	315.782	293.771	286.418	311.843	227.904	270.089	105.099	113.455	135.514	116.797	104.741	103.715	103.667	125.177	132.554	106.914	190.542	148.812	46.692
58.000	314.493	305.636	284.222	302.222	314.374	315.568	315.711	293.891	286.776	311.987	227.833	271.068	105.123	113.216	134.917	116.702	104.574	103.643	103.786	125.081	132.482	106.866	190.542	148.095	40.781
59.000	314.493	306.448	285.057	302.151	314.469	315.639	315.735	293.891	286.657	311.867	227.809	271.951	105.052	113.121	134.201	116.582	104.693	103.595	103.667	125.105	132.578	107.081	190.447	147.427	34.735
60.000	314.398	306.758	285.750	302.604	314.255	315.759	315.735	293.819	286.633	312.130	227.976	272.142	105.099	112.810	133.700	116.439	104.598	103.571	103.762	125.034	132.673	107.081	190.423	146.806	39.518
61.000	314.446	306.663	286.347	302.151	314.732	315.496	315.735	293.986	286.442	311.748	227.737	272.954	104.765	112.787	133.198	116.320	104.431	103.643	103.786	124.938	132.554	106.794	190.471	146.305	47.052
62.000	314.350	306.687	286.657	302.771	314.469	315.591	315.687	294.058	286.657	312.130	227.809	273.335	105.099	112.524	132.625	116.129	104.479	103.643	103.786	125.010	132.554	106.818	190.256	145.732	42.947
63.000	314.541	306.949	287.182	302.461	314.350	315.353	315.735	294.010	286.609	312.178	228.048	273.885	104.980	112.405	132.148	116.177	104.455	103.595	103.691	124.771	132.387	106.890	190.471	145.422	35.141
64.000	314.302	306.902	287.206	302.652	314.374	315.496	315.639	294.177	286.490	312.130	228.095	274.219	104.932	112.309	131.957	116.057	104.574	103.643	103.643	124.771	132.578	106.699	190.304	144.801	37.577
65.000	314.804	307.689	287.994	302.628	314.422	315.472	315.544	294.153	286.609	311.987	227.952	274.601	105.147	112.094	131.432	116.033	104.526	103.715	103.571	124.699	132.458	106.842	190.232	144.371	46.015
66.000	314.660	307.164	288.113	302.413	314.469	315.878	315.759	294.607	286.561	311.963	228.095	275.508	105.052	111.975	131.097	115.962	104.550	103.619	103.571	124.676	132.530	106.938	190.256	143.941	45.112
67.000	314.637	307.689	288.519	302.628	314.756	315.520	315.711	294.344	286.275	311.939	227.928	275.603	105.052	112.118	130.883	116.057	104.598	103.643	103.571	124.604	132.458	106.699	190.280	143.679	36.630
68.000	315.114	307.761	288.805	302.867	314.446	315.329	315.926	294.702	286.538	312.058	227.928	275.651	104.908	111.832	130.739	115.938	104.479	103.571	103.548	124.699	132.363	106.627	190.399	143.416	35.592
69.000	314.804	307.498	288.877	302.557	314.064	315.377	315.782	294.559	286.705	312.369	227.833	276.511	104.789	111.760	130.238	115.962	104.383	103.524	103.571	124.580	132.578	106.747	190.495	143.130	44.210
70.000	314.995	308.406	289.665	303.082	314.159	315.520	315.711	294.368	286.466	312.130	227.880	276.320	105.004	111.712	130.023	115.771	104.431	103.571	103.595	124.580	132.506	106.651	190.232	142.604	46.962
71.000	314.541	307.666	289.522	302.795	314.350	315.663	315.591	294.416	286.490	312.106	227.952	276.654	104.526	111.760	129.880	115.604	104.574	103.643	103.739	124.723	132.578	106.770	190.113	142.246	39.247
72.000	314.517	308.071	289.856	302.915	314.517	315.400	315.544	294.416	286.538	312.201	228.167	277.370	104.861	111.521	129.593	115.842	104.359	103.500	103.643	124.461	132.482	106.579	190.375	141.984	34.329
73.000	315.090	307.952	289.784	303.058	314.613	315.711	315.854	294.511	286.418	312.201	227.857	277.513	104.789	111.402	129.140	115.675	104.335	103.619	103.667	124.413	132.458	106.770	190.232	141.721	41.503
74.000	314.493	308.310	290.381	302.843	314.207	315.066	315.568	294.177	286.538	312.297	227.976	277.537	104.717	111.497	129.283	115.651	104.335	103.548	103.548	124.461	132.745	106.818	190.351	141.482	47.865
75.000	314.923	308.358	290.333	302.915	314.398	315.568	315.806	294.416	286.442	312.082	228.048	278.086	104.861	111.283	128.901	115.604	104.383	103.524	103.691	124.556	132.697	106.747	190.328	141.196	41.232
76.000	314.923	308.358	290.453	303.153	314.660	315.782	315.735	294.416	286.442	312.249	228.143	278.110	104.693	111.283	128.639	115.651	104.359	103.524	103.524	124.437	132.458	106.627	190.208	141.005	34.013
77.000	314.756	308.525	291.217	303.130	314.207	315.353	315.663	294.869	286.752	312.297	227.857	278.946	104.789	111.163	128.424	115.484	104.383	103.571	103.643	124.413	132.506	106.532	190.256	140.551	39.066
78.000	314.899	308.238	291.241	302.939	314.493	315.496	315.782	294.559	286.490	312.583	228.119	278.922	104.813	111.259	128.376	115.484	104.311	103.571	103.667	124.341	132.578	106.532	190.256	140.313	47.684
79.000	314.875	308.238	291.384	303.464	314.589	315.377	315.544	294.392	286.299	312.201	227.904	278.970	104.765	111.259	128.280	115.413	104.383	103.548	103.619	124.413	132.602	106.436	190.137	140.026	43.714
80.000	314.804	308.716	291.694	303.416	314.732	315.424	315.663	294.583	286.800	312.345	228.119	279.399	104.861	110.972	127.898	115.532	104.479	103.452	103.571	124.317	132.482	106.484	190.351	139.931	34.870
81.000	314.398	308.334	291.527	303.344	314.780	315.615	315.663	294.463	286.585	312.655	228.000	279.590	104.813	111.020	127.875	115.484	104.335	103.548	103.548	124.270	132.434	106.436	190.184	139.740	36.585
82.000	314.875	308.549	291.599	303.416	314.398	315.233	315.639	294.726	286.848	312.536	227.904	279.638	104.789	111.020	127.684	115.365	104.240	103.500	103.452	124.389	132.530	106.436	190.065	139.525	46.285
83.000	314.708	308.692	291.575	303.392	314.660	315.472	315.591	294.798	286.681	312.488	228.024	279.543	104.765	110.972	127.493	115.413	104.359	103.476	103.500	124.246	132.506	106.484	190.137	139.477	45.789
84.000	314.947	308.644	291.718	303.535	314.278	315.568	315.735	294.702	286.752	312.369	227.904	279.781	104.598	111.020	127.516	115.269	104.335	103.500	103.667	124.413	132.530	106.436	190.137	139.596	36.675
85.000	314.828	308.716	292.172	303.655	314.780	315.591	315.615	294.487	286.514	312.512	227.952	280.068	104.813	110.996	127.493	115.389	104.455	103.524	103.500	124.222	132.602	106.603	190.280	139.477	34.961
86.000	314.923	308.573	291.981	303.344	314.446	315.520	315.711	294.845	286.466	312.440	228.143	280.092	104.622	110.972	127.302	115.150	104.383	103.428	103.548	124.270	132.578	106.579	190.137	139.191	44.345
87.000	315.210	308.549	292.219	303.273	314.541	315.353	315.973	295.132	286.561	312.727	228.430	280.187	104.502	110.829	127.134	115.246	104.240	103.476	103.571	124.222	132.554	106.484	190.065	138.809	47.459
88.000	314.565	308.644	292.482	303.607	314.780	315.377	315.663	294.654	286.705	312.416	228.406	280.951	104.622	110.972	127.158	115.389	104.335	103.500	103.500	124.174	132.554	106.603	190.137	138.713	39.247
89.000	315.186	308.979	292.291	303.822	314.732	315.735	315.735	294.845	286.514	312.512	228.239	280.784	104.837	110.757	126.967	115.246	104.120	103.452	103.548	124.174	132.434	106.508	190.160	138.474	33.652
