-----------------------------------------------------
BloodHound 307 VOC Analyser V2017.1
RoboScientific Ltd 
Espace North
Wisbech Road
Littleport
Cambridgeshire, UK
CB6 1RA 
-----------------------------------------------------
Date = 31/03/2022
Time = 11:51:51
Data is protected by RoboScientific Limited
-----------------------------------------------------
Name of the experiment = "36b_Day 29"
-----------------------------------------------------
Repeat No. = 4/4
-----------------------------------------------------
Experimental Time (in sec) and Flow Profile :
-----------------------------------------------------
Baseline = 2.00
Absorb = 4.00
Pause = 1.00
Desorb = 5.00
Flush = 20.00
Wait = 5.00
Higher Flow (V) = 4.00
Medium Flow (V) = 3.00
Low Flow (V) = 1.00
-----------------------------------------------------
Total Profile Time = 37 in sec
-----------------------------------------------------
Acquired data point per second = 4
--------------------------------------------------
Total data point stored  = 128
-----------------------------------------------------
Acquired sensor responses from 24 sensors
-----------------------------------------------------

Data Points	 Sen-1	 Sen-2	 Sen-3	 Sen-4	 Sen-5	 Sen-6	 Sen-7	 Sen-8	 Sen-9	 Sen-10	 Sen-11	 Sen-12	 Sen-13	 Sen-14	 Sen-15	 Sen-16	 Sen-17	 Sen-18	 Sen-19	 Sen-20	 Sen-21	 Sen-22	 Sen-23	 Sen-24	Humidity (%r.h.)
0.000	315.926	310.697	298.832	305.039	314.732	315.568	315.902	296.660	286.967	313.300	228.525	293.843	104.097	108.871	120.092	113.550	104.120	103.380	103.571	122.408	132.554	105.792	189.898	125.607	35.953
1.000	315.711	310.578	298.880	305.493	315.066	315.878	315.926	296.493	286.681	313.228	228.597	293.747	103.643	108.776	120.140	113.455	104.073	103.524	103.548	122.336	132.482	105.577	189.946	125.535	33.517
2.000	315.639	310.435	298.976	305.421	314.947	315.615	316.045	296.708	286.561	313.562	228.644	293.723	103.858	108.776	120.044	113.383	103.882	103.357	103.524	122.431	132.482	105.625	190.017	125.583	44.210
3.000	315.854	310.650	299.358	305.111	314.947	315.830	315.878	296.875	286.800	313.347	228.430	293.652	103.977	108.609	119.853	113.431	103.953	103.452	103.548	122.336	132.434	105.601	189.946	125.439	49.354
4.000	315.639	310.817	299.525	305.063	314.947	315.615	315.973	296.660	286.561	313.610	228.358	294.105	104.049	108.728	120.044	113.407	103.929	103.452	103.452	122.288	132.506	105.648	189.922	125.439	40.014
5.000	315.424	311.056	299.716	305.565	314.971	315.615	315.830	296.636	286.705	313.467	228.716	293.843	103.906	108.704	119.925	113.598	104.120	103.404	103.500	122.288	132.554	105.720	189.969	125.368	32.118
6.000	315.973	311.032	299.549	305.445	315.019	315.639	316.093	296.564	286.347	313.276	228.382	293.532	103.906	108.704	119.901	113.503	103.810	103.333	103.524	122.264	132.602	105.648	189.778	125.368	40.194
7.000	315.472	311.008	299.572	305.183	314.804	315.353	315.663	296.731	286.514	313.276	228.668	293.795	103.858	108.609	119.925	113.479	103.977	103.380	103.357	122.217	132.506	105.744	189.874	125.296	49.715
8.000	315.424	310.912	298.952	305.111	314.851	315.902	316.045	296.779	286.967	313.610	228.525	294.105	103.858	108.704	119.877	113.455	103.977	103.452	103.524	122.217	132.482	105.553	189.922	125.201	43.172
9.000	315.448	310.960	299.811	305.254	314.995	315.902	315.902	296.564	286.466	313.395	228.286	293.556	104.001	108.728	119.781	113.455	104.097	103.476	103.380	122.360	132.554	105.577	189.850	125.392	32.479
10.000	315.711	309.432	299.286	305.421	315.210	315.830	315.950	296.708	286.681	313.109	228.286	291.145	104.001	109.588	119.996	113.407	103.929	103.357	103.357	122.217	132.267	105.768	190.113	126.848	37.036
11.000	314.422	293.819	297.543	304.586	314.613	315.568	315.854	295.872	287.516	312.631	226.496	250.274	104.813	125.010	121.500	114.100	104.168	103.452	103.571	122.933	131.742	106.436	191.569	167.672	44.300
12.000	314.255	271.664	294.249	304.061	315.042	315.806	315.711	295.180	287.755	311.772	225.899	230.650	105.457	148.215	125.272	115.126	104.288	103.476	103.571	123.840	131.097	106.938	192.309	188.370	40.871
13.000	313.324	251.563	289.283	302.294	314.422	315.639	315.568	294.034	288.042	310.984	225.445	245.284	106.221	168.245	130.071	116.415	104.479	103.619	103.739	125.010	131.145	107.916	192.834	173.115	42.766
14.000	312.536	236.356	283.625	300.814	314.278	315.233	315.377	292.697	288.614	310.315	224.872	255.526	106.818	182.712	135.228	117.872	104.717	103.691	103.739	126.084	130.739	108.656	193.336	162.061	43.398
15.000	312.178	224.610	277.513	298.952	314.016	315.257	315.496	292.028	288.447	308.931	224.514	263.858	107.678	194.386	141.291	119.614	104.765	103.882	103.667	126.943	130.620	109.683	193.574	155.138	38.570
16.000	311.581	217.090	272.142	297.281	314.111	315.114	315.424	291.312	288.543	308.238	224.729	269.444	108.036	202.694	147.117	121.453	104.765	103.929	103.762	127.779	130.548	110.686	193.861	149.289	36.269
17.000	310.697	220.647	266.746	295.466	313.514	314.995	315.544	290.262	288.424	307.188	224.061	273.861	108.824	198.659	152.393	123.171	105.123	104.073	103.739	128.543	130.596	111.593	194.052	144.896	43.804
18.000	309.671	225.230	261.065	294.034	313.849	314.875	315.353	289.140	288.424	306.615	224.252	277.752	109.015	193.741	157.621	124.890	105.290	104.192	103.810	129.355	130.477	112.094	194.362	140.862	47.233
19.000	309.575	229.456	255.741	292.363	313.324	315.090	315.472	288.901	288.376	305.827	223.703	280.163	109.778	189.373	163.064	126.538	105.410	104.288	103.858	129.975	130.596	112.978	194.529	137.901	39.743
20.000	309.146	233.324	251.229	290.524	313.682	314.804	315.210	288.018	288.328	305.326	223.989	282.933	110.160	185.959	168.125	127.922	105.457	104.311	103.929	130.572	130.668	113.360	194.720	136.135	33.517
21.000	308.835	236.379	246.454	289.068	312.942	314.398	315.162	287.469	288.567	304.777	223.488	284.628	110.375	182.807	172.470	129.450	105.553	104.407	104.001	131.312	130.787	114.171	194.768	134.153	41.052
22.000	308.262	239.650	242.634	288.065	312.870	314.183	314.828	286.681	288.137	304.419	223.464	285.917	110.996	179.608	176.791	130.811	106.030	104.526	104.168	131.838	130.644	114.744	194.816	132.530	48.812
23.000	308.071	241.990	239.173	286.466	312.560	314.278	314.875	286.251	288.543	304.132	223.368	287.851	111.235	177.149	180.325	132.029	106.054	104.789	104.264	132.267	130.668	115.078	195.054	130.930	42.089
24.000	308.047	243.828	236.141	285.248	312.822	314.255	314.899	285.750	288.304	302.962	223.440	289.617	111.569	175.383	183.786	133.437	106.054	104.765	104.192	132.888	130.763	115.532	195.007	129.737	32.975
25.000	307.713	245.523	233.658	284.007	312.798	314.135	314.756	285.320	288.161	302.724	223.177	289.856	111.784	173.735	186.484	134.726	106.174	104.884	104.311	133.198	130.763	115.747	195.150	128.758	37.938
26.000	307.785	245.786	232.822	284.007	312.464	313.873	314.780	285.153	288.137	303.344	223.082	289.331	112.118	173.735	188.203	134.750	106.245	104.765	104.311	133.365	130.906	115.795	195.198	129.116	48.451
27.000	307.952	244.496	232.297	284.628	312.273	314.135	314.947	285.606	288.113	303.655	223.559	288.877	112.046	174.929	188.561	134.010	106.245	104.884	104.359	133.222	130.883	115.293	195.078	129.999	45.293
28.000	307.809	242.754	232.297	285.033	312.440	313.992	314.708	285.344	287.970	304.061	223.416	288.089	111.617	176.290	188.465	133.604	106.078	104.717	104.359	133.031	130.930	115.055	194.935	131.265	34.554
29.000	308.334	241.035	232.965	285.678	312.703	314.422	315.090	285.917	288.113	304.061	223.894	286.848	111.617	178.200	188.036	133.198	106.245	104.741	104.192	132.769	130.883	114.816	194.911	132.005	35.231
30.000	308.620	241.082	232.321	285.368	312.655	314.278	314.971	285.630	288.185	304.084	223.679	286.705	111.163	178.343	188.370	133.485	106.269	104.741	104.192	132.936	130.954	114.911	194.911	131.885	46.150
31.000	310.960	231.032	231.796	286.370	312.392	314.064	315.019	286.848	288.089	306.543	224.347	277.919	108.513	188.298	188.704	132.530	106.197	104.670	104.240	131.647	131.169	112.309	193.909	141.530	47.098
32.000	312.201	249.534	234.875	289.593	312.846	314.398	314.947	288.662	287.707	308.286	225.493	248.579	107.200	169.892	184.646	129.068	105.959	104.383	104.288	130.023	131.336	110.542	193.216	170.751	39.472
33.000	313.562	268.752	240.486	292.434	313.300	314.804	315.281	290.142	287.660	309.480	225.971	221.793	106.293	150.005	178.319	125.989	105.839	104.288	104.049	128.806	131.456	109.397	192.572	197.012	39.112
34.000	313.013	281.333	247.170	295.013	313.300	314.828	315.281	290.930	287.397	310.292	226.448	235.233	105.720	138.260	171.563	123.649	105.362	104.025	103.882	127.588	131.694	108.728	192.261	183.715	40.600
35.000	314.207	289.020	254.117	297.090	313.753	315.233	315.615	292.100	287.325	311.008	226.687	245.857	105.696	131.121	165.022	122.097	105.266	103.929	104.025	126.729	131.814	108.060	191.760	172.876	38.931
36.000	314.111	293.676	260.157	298.235	313.968	315.066	315.448	292.816	287.134	311.127	226.711	254.189	105.338	125.941	158.815	120.545	105.099	103.858	103.810	125.965	131.909	107.821	191.545	165.237	40.239
37.000	314.326	297.042	264.932	299.262	313.825	315.281	315.472	293.246	286.991	311.342	227.236	259.966	105.123	122.408	153.825	119.543	105.004	103.858	103.882	125.583	132.100	107.534	191.330	159.006	44.751
38.000	314.493	299.310	269.038	300.169	314.111	315.233	315.639	293.676	286.943	311.676	227.403	264.526	104.932	119.972	149.623	118.731	104.837	103.834	103.715	125.153	132.005	107.320	191.354	154.517	42.811
39.000	314.374	301.339	272.858	300.885	314.135	315.233	315.496	293.938	287.254	312.010	227.307	267.797	104.765	118.349	146.281	118.015	104.717	103.762	103.882	124.962	132.124	107.200	191.115	151.223	35.863
40.000	314.660	302.557	275.675	301.196	313.992	315.305	315.687	294.487	286.872	311.867	227.260	270.805	104.622	117.012	143.345	117.418	104.646	103.786	103.762	124.556	132.196	107.057	190.948	148.525	37.893
41.000	314.828	303.750	278.134	301.745	314.398	315.400	315.496	294.440	286.776	312.178	227.379	272.810	104.884	115.842	140.814	117.012	104.693	103.715	103.739	124.294	132.100	106.914	190.948	146.185	45.834
42.000	314.756	304.419	280.330	302.103	314.135	315.305	315.854	294.893	286.896	312.273	227.475	274.792	104.407	115.174	138.904	116.559	104.574	103.667	103.691	124.222	132.267	106.675	190.877	144.132	44.797
43.000	315.233	304.896	281.858	302.891	314.995	315.615	315.997	294.917	286.705	312.010	227.522	276.344	104.741	114.362	137.209	116.200	104.502	103.762	103.786	124.031	132.148	106.579	190.829	142.533	36.224
44.000	314.469	305.923	283.601	302.748	314.350	315.281	315.568	295.060	286.609	312.607	227.737	278.086	104.574	113.574	135.442	116.033	104.622	103.715	103.786	123.864	132.315	106.603	190.877	141.148	35.908
45.000	315.042	306.042	284.604	303.177	314.971	315.782	315.806	295.347	286.705	312.369	227.833	279.089	104.407	113.312	134.297	115.627	104.383	103.643	103.619	123.768	132.315	106.532	190.709	139.716	45.022
46.000	315.305	306.543	285.941	303.082	314.589	315.615	315.830	295.299	286.919	312.703	227.785	280.426	104.526	112.978	133.079	115.580	104.264	103.404	103.715	123.601	132.339	106.556	190.590	138.618	47.143
47.000	315.305	307.355	287.278	303.559	314.589	315.687	315.854	295.371	286.705	312.774	227.761	281.596	104.407	112.405	132.148	115.484	104.550	103.595	103.595	123.649	132.458	106.436	190.733	137.782	38.254
48.000	315.210	307.188	287.755	303.392	314.565	316.021	315.926	295.418	286.681	312.560	227.809	282.336	104.216	112.118	131.217	115.222	104.288	103.571	103.739	123.458	132.291	106.341	190.518	136.875	33.968
49.000	315.257	307.737	289.140	303.750	314.589	315.496	315.687	295.514	286.609	312.846	227.785	283.315	104.288	111.927	130.405	115.102	104.311	103.571	103.667	123.458	132.530	106.412	190.542	135.848	42.044
50.000	315.568	308.095	289.355	303.846	314.804	315.544	315.830	295.705	286.728	312.583	228.048	283.673	104.598	111.664	129.307	115.007	104.264	103.595	103.619	123.434	132.387	106.221	190.566	135.371	48.587
51.000	315.568	308.000	290.286	303.750	314.589	315.591	316.117	295.872	286.705	312.607	227.928	284.532	104.455	111.259	128.782	114.840	104.288	103.476	103.571	123.315	132.506	106.269	190.375	134.726	42.135
52.000	315.472	308.334	291.121	304.228	314.828	315.496	315.878	295.896	286.490	312.679	228.048	284.723	104.264	111.235	128.185	114.720	104.216	103.595	103.619	123.243	132.554	106.150	190.471	134.201	33.246
53.000	314.875	308.644	291.336	304.108	314.684	315.329	315.544	295.609	286.681	313.156	227.952	285.630	104.431	111.187	127.684	114.696	104.264	103.548	103.548	122.981	132.363	106.245	190.304	133.819	38.029
54.000	315.568	308.740	291.909	304.275	314.923	315.639	315.878	296.111	286.776	312.703	227.904	285.439	104.216	110.996	127.134	114.673	104.264	103.571	103.524	123.171	132.554	106.197	190.328	133.389	47.729
55.000	315.568	308.740	291.909	304.275	314.923	315.639	315.878	296.111	286.776	312.703	227.904	285.439	104.216	110.996	127.134	114.673	104.264	103.571	103.524	123.171	132.554	106.197	190.328	133.389	-6.000
56.000	315.639	310.172	297.543	305.087	314.660	315.735	316.021	296.373	286.609	313.395	228.095	292.219	104.168	109.158	121.453	113.622	104.144	103.548	103.595	122.646	132.578	105.792	190.089	127.158	73.357
57.000	315.233	310.602	297.782	305.063	314.804	315.520	315.687	296.159	286.538	313.538	227.761	291.981	104.288	109.229	121.500	113.765	104.120	103.476	103.500	122.622	132.554	105.768	190.113	127.254	37.307
58.000	315.615	310.506	297.949	305.374	315.090	315.735	315.639	296.302	286.633	312.942	228.549	292.386	104.120	108.991	121.214	113.765	104.097	103.404	103.524	122.455	132.530	105.911	190.065	126.967	32.975
59.000	315.639	310.387	297.973	305.159	314.995	315.591	316.093	296.302	286.299	313.514	228.215	292.076	104.097	108.943	121.047	113.670	104.097	103.524	103.643	122.551	132.506	105.768	189.969	126.943	42.992
60.000	315.711	310.244	297.782	304.848	314.828	315.759	316.236	296.970	286.705	313.419	228.143	291.981	103.858	109.182	121.214	113.718	104.120	103.452	103.595	122.646	132.530	105.815	190.160	126.800	49.760
61.000	315.735	310.315	297.949	304.586	314.613	315.615	315.782	296.684	286.561	313.013	228.143	292.458	103.739	109.038	121.166	113.503	104.025	103.428	103.619	122.575	132.578	105.768	189.922	126.872	40.781
62.000	315.448	310.578	298.188	305.063	314.899	315.639	315.830	296.421	286.991	313.371	228.430	292.673	104.073	109.229	121.071	113.813	104.168	103.524	103.548	122.551	132.482	105.720	190.137	126.872	32.253
63.000	315.400	310.650	298.474	305.039	314.899	315.639	315.830	296.397	286.800	313.395	228.262	292.673	104.192	109.038	121.095	113.622	104.120	103.404	103.452	122.527	132.625	105.887	190.065	126.729	38.976
64.000	315.997	310.244	297.973	304.920	314.780	315.496	315.806	296.851	286.967	313.276	228.215	292.363	103.977	108.991	120.927	113.718	104.025	103.476	103.500	122.527	132.506	105.744	190.113	126.848	49.444
65.000	315.496	310.530	298.092	304.777	314.684	315.615	315.615	296.469	286.991	313.610	228.095	292.267	103.810	109.110	121.095	113.527	104.073	103.380	103.643	122.551	132.578	105.672	190.089	126.705	44.390
66.000	315.615	310.339	298.140	305.374	314.947	315.687	315.973	296.684	286.681	313.252	228.215	292.506	104.001	109.134	120.951	113.574	104.144	103.452	103.548	122.431	132.458	105.720	189.993	126.776	33.472
67.000	315.687	310.220	298.331	305.063	315.066	315.782	315.926	296.684	286.872	313.300	228.095	292.386	104.025	109.015	120.927	113.646	104.120	103.595	103.571	122.431	132.458	105.601	190.065	126.562	35.908
68.000	315.615	310.411	298.307	305.278	315.042	315.854	315.806	296.517	286.657	313.371	228.286	292.506	103.906	109.015	120.975	113.670	104.001	103.428	103.524	122.479	132.506	105.577	190.065	126.585	47.233
69.000	315.066	310.292	298.570	305.039	314.899	315.591	315.639	296.469	286.728	313.586	228.334	292.912	103.929	108.943	120.975	113.789	104.073	103.500	103.548	122.408	132.434	105.720	190.089	126.466	47.188
70.000	315.305	310.148	298.307	305.517	315.162	315.902	315.806	296.612	286.752	313.085	228.167	292.625	104.049	109.134	120.760	113.813	104.073	103.500	103.595	122.455	132.458	105.744	190.065	126.394	36.134
71.000	315.281	310.435	298.761	305.254	314.995	315.568	315.806	296.612	286.705	313.324	228.430	292.649	104.025	108.847	120.665	113.503	104.049	103.404	103.476	122.503	132.530	105.672	189.969	126.299	33.381
72.000	315.353	310.339	298.522	305.183	314.684	315.329	315.997	296.708	286.752	313.300	228.644	292.936	103.882	109.038	120.641	113.646	103.977	103.404	103.548	122.384	132.482	105.768	190.065	126.371	44.345
73.000	315.687	310.411	298.403	305.063	314.995	315.878	316.069	296.731	286.442	312.989	228.453	292.673	103.906	108.895	120.736	113.646	104.216	103.571	103.667	122.408	132.434	105.625	189.922	126.180	49.173
74.000	315.711	310.483	298.594	305.565	314.923	315.711	315.926	296.493	286.323	313.061	228.406	292.888	104.001	108.943	120.641	113.550	104.001	103.619	103.524	122.479	132.434	105.720	189.993	126.299	39.202
75.000	315.400	310.483	298.880	305.636	315.042	315.544	315.591	296.397	286.561	313.324	228.382	293.174	103.977	108.824	120.522	113.574	104.264	103.619	103.524	122.312	132.243	105.577	190.089	126.251	32.208
76.000	315.950	310.483	298.761	305.565	315.066	315.735	315.782	296.493	286.848	313.705	228.358	293.055	103.906	108.776	120.569	113.598	104.097	103.428	103.333	122.384	132.554	105.863	190.137	126.275	40.916
77.000	315.066	310.793	298.689	305.398	314.875	315.687	315.663	296.445	286.418	313.204	228.549	293.222	103.739	108.991	120.450	113.550	104.144	103.428	103.476	122.384	132.458	105.792	189.969	126.060	49.895
78.000	315.639	310.769	298.808	305.350	314.780	315.568	315.806	296.588	286.514	313.324	228.143	293.198	103.858	108.800	120.426	113.622	104.097	103.548	103.524	122.312	132.458	105.577	189.993	125.893	42.586
79.000	315.305	310.865	299.095	305.469	315.090	315.496	315.711	296.564	286.538	313.061	228.430	293.389	104.025	108.919	120.402	113.550	104.144	103.333	103.548	122.384	132.458	105.696	190.041	125.774	32.569
80.000	315.615	310.626	298.928	305.063	314.684	315.424	315.759	296.708	286.752	313.562	228.215	293.485	103.858	108.847	120.450	113.550	103.953	103.380	103.548	122.455	132.578	105.720	189.898	125.774	37.487
81.000	315.520	310.626	299.023	305.445	314.899	315.735	315.782	296.469	286.752	313.276	228.262	293.413	103.906	108.728	120.307	113.598	104.049	103.380	103.380	122.288	132.458	105.720	189.898	125.726	48.857
82.000	315.377	310.435	298.808	305.135	315.210	315.878	315.568	296.493	286.418	313.061	228.119	293.556	103.882	108.800	120.450	113.503	104.025	103.380	103.571	122.408	132.458	105.529	189.946	125.535	45.473
83.000	315.711	310.459	298.689	305.135	315.138	315.950	316.021	296.493	286.561	313.300	228.406	293.604	103.882	108.871	120.331	113.622	104.097	103.452	103.452	122.360	132.482	105.792	189.826	125.583	34.419
84.000	315.902	310.865	299.095	305.302	314.995	315.782	316.141	296.564	286.681	313.371	228.167	293.532	103.953	108.776	120.235	113.503	104.120	103.619	103.548	122.551	132.411	105.601	189.946	125.344	34.148
85.000	315.281	310.650	298.976	305.302	315.210	315.711	315.687	296.564	286.538	313.467	228.071	293.747	104.025	108.680	119.901	113.455	104.192	103.643	103.548	122.384	132.554	105.648	189.946	125.296	46.195
86.000	315.424	310.674	298.952	305.207	314.899	315.639	315.782	296.540	286.514	313.514	228.382	293.938	103.906	108.752	120.140	113.527	104.049	103.500	103.524	122.408	132.458	105.577	189.946	125.392	48.541
87.000	316.069	310.769	299.453	305.421	314.995	315.711	316.021	296.517	286.275	313.371	228.310	293.676	104.073	108.704	120.068	113.431	103.953	103.476	103.476	122.360	132.578	105.648	189.922	125.248	38.209
88.000	315.544	311.008	299.549	305.565	314.804	315.568	315.830	296.540	286.370	313.347	228.239	294.105	104.001	108.656	119.996	113.455	104.097	103.428	103.428	122.193	132.434	105.720	189.922	125.344	32.434
89.000	315.902	310.912	299.190	305.350	315.138	315.854	315.902	296.660	286.681	313.156	228.191	293.962	103.929	108.704	119.949	113.503	104.073	103.404	103.500	122.288	132.578	105.672	189.993	125.177	42.541
