-----------------------------------------------------
BloodHound 307 VOC Analyser V2017.1
RoboScientific Ltd 
Espace North
Wisbech Road
Littleport
Cambridgeshire, UK
CB6 1RA 
-----------------------------------------------------
Date = 31/03/2022
Time = 11:39:39
Data is protected by RoboScientific Limited
-----------------------------------------------------
Name of the experiment = "36b_Day 27"
-----------------------------------------------------
Repeat No. = 4/4
-----------------------------------------------------
Experimental Time (in sec) and Flow Profile :
-----------------------------------------------------
Baseline = 2.00
Absorb = 4.00
Pause = 1.00
Desorb = 5.00
Flush = 20.00
Wait = 5.00
Higher Flow (V) = 4.00
Medium Flow (V) = 3.00
Low Flow (V) = 1.00
-----------------------------------------------------
Total Profile Time = 37 in sec
-----------------------------------------------------
Acquired data point per second = 4
--------------------------------------------------
Total data point stored  = 128
-----------------------------------------------------
Acquired sensor responses from 24 sensors
-----------------------------------------------------

Data Points	 Sen-1	 Sen-2	 Sen-3	 Sen-4	 Sen-5	 Sen-6	 Sen-7	 Sen-8	 Sen-9	 Sen-10	 Sen-11	 Sen-12	 Sen-13	 Sen-14	 Sen-15	 Sen-16	 Sen-17	 Sen-18	 Sen-19	 Sen-20	 Sen-21	 Sen-22	 Sen-23	 Sen-24	Humidity (%r.h.)
0.000	313.873	309.217	294.392	304.419	314.756	315.496	315.711	295.490	286.609	311.199	228.621	283.052	106.341	110.232	125.010	114.649	104.144	103.500	103.619	123.458	132.387	107.678	189.635	136.254	41.232
1.000	313.586	309.098	294.296	303.846	315.042	315.687	315.830	295.538	286.370	311.127	228.597	283.315	106.126	110.089	124.938	114.864	104.264	103.524	103.571	123.434	132.578	107.749	189.635	136.063	48.587
2.000	313.419	309.766	294.869	304.132	314.780	315.735	315.615	295.633	286.705	311.438	228.549	283.171	106.078	110.208	124.771	114.601	104.168	103.524	103.476	123.434	132.602	107.678	189.611	135.968	41.638
3.000	313.634	309.432	294.726	304.228	314.780	315.496	315.735	295.657	286.561	311.318	228.931	283.267	105.863	110.208	124.747	114.673	104.216	103.548	103.524	123.386	132.578	107.582	189.540	135.753	33.336
4.000	313.562	309.528	294.822	303.917	314.374	315.424	315.735	295.466	286.752	311.605	228.621	283.553	105.815	110.089	124.556	114.529	104.192	103.500	103.667	123.506	132.673	107.773	189.611	135.514	38.751
5.000	313.562	309.432	294.654	304.371	314.732	315.329	315.806	295.991	286.705	311.247	228.549	283.720	105.959	109.993	124.604	114.673	104.144	103.404	103.619	123.410	132.530	107.463	189.683	135.419	48.180
6.000	313.419	309.384	294.678	304.228	314.756	315.615	315.854	295.633	286.394	311.247	228.477	283.959	105.863	110.041	124.413	114.505	104.264	103.452	103.548	123.458	132.458	107.582	189.420	135.251	43.623
7.000	313.347	309.623	295.036	304.108	314.804	315.281	315.663	295.681	286.418	311.533	228.740	284.102	105.839	110.089	124.365	114.601	104.049	103.548	103.595	123.410	132.434	107.701	189.516	135.371	34.284
8.000	313.586	309.408	295.084	303.989	314.875	315.591	315.735	295.800	286.752	311.724	228.764	284.126	105.959	110.089	124.485	114.625	104.240	103.404	103.524	123.267	132.649	107.487	189.516	135.228	36.765
9.000	313.705	309.623	294.989	304.347	314.637	315.400	315.615	295.753	286.633	311.270	228.764	283.959	105.887	109.946	124.270	114.458	104.001	103.404	103.500	123.315	132.530	107.534	189.659	135.347	46.646
10.000	312.154	308.047	294.702	304.347	314.971	315.735	315.663	295.347	286.609	310.626	228.262	281.238	106.794	111.474	124.580	114.553	104.168	103.571	103.715	123.434	132.220	107.940	189.683	138.498	45.834
11.000	296.684	278.707	291.981	302.891	314.637	315.520	315.663	294.893	287.588	307.069	226.257	259.489	124.365	142.795	127.158	115.556	104.359	103.524	103.595	124.079	131.265	112.166	191.688	158.098	40.691
12.000	274.529	229.098	285.320	300.694	314.135	314.971	315.591	292.745	288.161	296.397	224.968	284.270	143.727	188.800	133.628	117.537	104.455	103.667	103.548	126.036	130.978	122.026	193.288	134.010	44.661
13.000	258.701	256.027	275.221	297.639	313.849	314.732	315.400	289.760	288.591	286.442	223.989	298.307	160.438	162.945	142.939	120.713	105.052	104.240	103.977	128.901	130.525	132.506	194.243	121.667	36.720
14.000	246.120	274.720	264.813	293.461	313.586	315.114	315.353	287.373	288.543	278.612	223.583	305.660	173.210	144.061	154.326	125.535	105.457	104.264	103.929	131.360	130.381	140.313	195.126	113.574	32.659
15.000	234.517	286.681	253.473	288.805	313.133	314.255	314.947	284.628	288.376	271.688	222.509	311.581	185.553	131.670	166.120	130.262	105.935	104.550	104.025	133.891	130.525	147.642	195.747	107.654	45.879
16.000	223.010	295.681	242.443	283.625	312.106	313.777	314.875	282.049	288.113	264.526	222.127	314.851	195.580	122.312	176.027	135.490	106.412	105.075	104.168	136.254	130.620	153.897	196.511	103.762	51.113
17.000	222.461	302.891	235.114	277.824	311.557	313.085	314.493	279.304	287.755	257.579	221.291	317.382	196.463	115.627	185.099	140.695	106.818	105.553	104.407	139.023	131.074	160.414	196.940	101.399	37.848
18.000	232.369	307.856	231.557	272.882	311.247	312.774	314.159	276.797	287.397	251.539	221.077	320.414	187.176	111.402	188.823	146.114	107.463	106.102	104.837	142.008	131.456	167.839	197.394	99.585	29.682
19.000	242.610	311.247	235.066	267.367	310.602	311.891	313.658	273.908	286.776	244.520	220.862	320.891	177.388	107.797	184.288	151.294	108.012	106.842	105.195	144.896	131.981	174.404	197.609	97.913	43.037
20.000	250.918	314.637	239.937	262.115	310.292	311.199	313.443	270.924	286.657	237.764	220.527	322.945	168.292	104.526	177.316	156.833	108.728	107.534	105.672	147.809	132.387	181.160	197.872	96.529	53.414
21.000	259.751	316.976	246.311	256.672	309.170	309.695	312.703	267.319	286.251	230.507	220.313	323.565	159.889	102.330	170.154	161.488	109.229	108.847	106.197	150.889	132.769	187.892	198.182	96.123	41.052
22.000	266.603	318.767	251.420	251.826	308.262	308.262	312.082	264.455	285.750	224.061	220.336	324.663	152.942	100.157	164.282	166.645	110.137	110.184	106.770	154.231	133.079	195.031	198.301	95.550	28.779
23.000	272.977	320.151	256.815	247.266	307.833	306.973	311.366	261.661	285.463	217.567	220.313	324.878	146.544	98.797	158.767	171.515	110.853	111.688	107.320	157.072	133.509	201.094	198.301	94.881	38.660
24.000	278.134	321.727	260.468	242.706	307.284	305.374	310.769	258.653	285.129	217.519	219.954	325.475	140.933	97.054	153.539	176.194	111.760	113.670	108.394	160.629	133.795	201.023	198.540	94.810	53.234
25.000	282.240	322.133	264.335	238.313	306.496	303.177	309.408	255.144	284.699	221.196	219.954	325.189	137.424	95.932	149.456	180.611	112.619	115.174	109.229	163.255	134.273	197.657	198.803	93.903	45.293
26.000	283.768	323.350	265.529	238.289	305.994	302.580	309.074	255.096	284.150	221.148	219.931	325.260	136.135	96.433	147.785	180.659	112.858	116.033	109.731	164.258	134.297	198.039	198.612	94.165	29.907
27.000	283.529	323.613	266.317	239.698	305.684	302.533	309.050	255.454	284.699	219.907	219.954	325.141	135.992	95.526	147.594	179.465	113.025	116.009	109.731	163.637	134.320	199.352	198.540	93.712	35.141
28.000	283.362	323.064	266.364	241.106	305.947	302.867	309.026	256.314	284.461	217.830	220.241	325.666	135.968	95.478	147.546	177.889	113.097	115.914	110.113	163.064	134.034	200.927	198.492	93.903	51.700
29.000	283.219	323.183	266.746	242.252	305.827	303.058	308.931	256.481	284.986	216.660	220.408	326.311	135.705	95.359	148.334	176.744	112.882	115.675	110.017	162.587	133.915	202.527	198.110	94.070	48.451
30.000	284.890	323.971	266.723	241.202	305.899	302.389	308.644	255.717	284.747	217.973	219.978	325.308	134.583	95.096	146.902	177.316	113.169	116.320	110.399	163.303	134.225	201.357	198.564	94.094	31.802
31.000	271.091	322.372	268.155	238.528	305.207	301.506	308.286	258.844	285.296	234.613	220.814	323.708	147.308	97.102	145.565	179.561	113.431	117.227	110.877	159.865	133.867	183.762	197.776	95.287	32.163
32.000	238.623	316.928	267.964	244.926	305.803	302.843	308.764	264.741	285.678	260.993	222.127	318.552	181.661	101.685	146.114	173.759	113.145	116.033	110.280	154.374	133.198	158.242	196.344	100.062	48.722
33.000	270.853	308.358	265.266	253.210	306.305	304.634	309.910	269.540	286.514	279.877	223.034	313.013	149.862	111.235	148.931	165.595	112.309	114.243	109.420	149.408	132.411	140.074	195.102	106.699	50.346
34.000	286.776	293.461	261.447	260.683	307.164	306.758	310.769	273.073	286.967	289.904	223.798	304.347	132.530	126.466	153.061	157.502	111.259	111.855	108.274	145.087	132.220	128.639	194.672	115.699	36.765
35.000	296.159	272.261	256.099	268.346	308.573	308.883	311.605	276.415	286.872	296.135	224.276	293.365	123.625	147.212	159.698	150.268	110.399	110.089	107.296	141.888	132.052	122.909	193.956	125.296	32.614
36.000	301.244	246.979	248.889	274.505	309.098	309.957	312.488	279.161	287.087	300.098	224.968	281.787	118.898	171.086	166.884	144.061	109.635	108.704	106.747	139.262	131.981	118.946	193.359	137.066	43.578
37.000	304.275	224.085	240.700	279.901	310.029	311.628	313.037	281.261	286.848	302.652	225.589	268.895	115.365	193.646	175.311	139.071	108.633	107.343	106.102	136.875	132.029	116.463	192.930	149.862	46.827
38.000	305.803	235.138	233.849	283.625	310.769	312.345	313.347	283.959	286.967	304.275	225.803	257.078	113.479	184.264	184.216	134.655	107.964	106.484	105.648	134.631	132.052	114.696	192.452	162.037	40.059
39.000	307.666	249.152	228.310	287.182	311.509	313.538	314.135	285.917	287.015	305.254	226.042	246.287	111.664	170.322	191.211	131.479	107.463	105.696	105.099	132.649	132.100	113.383	192.237	173.568	37.623
40.000	308.477	260.611	229.361	289.951	312.201	313.753	314.398	286.919	286.967	306.305	226.424	236.403	110.542	158.910	190.542	128.853	106.961	104.980	104.670	131.336	132.172	112.619	191.951	182.067	41.007
41.000	309.313	269.110	234.684	291.909	312.512	314.231	314.517	287.922	286.776	307.331	226.567	228.048	109.826	150.674	185.123	126.967	106.651	104.717	104.479	130.477	132.124	111.832	191.617	189.850	42.856
42.000	310.339	275.484	240.223	293.795	312.774	314.756	314.804	288.973	286.896	307.618	226.758	222.533	109.349	144.037	179.155	125.201	106.245	104.550	104.526	129.761	132.220	111.187	191.617	196.606	40.510
43.000	310.793	280.235	245.666	294.798	312.989	314.374	314.851	289.474	286.776	308.453	226.949	218.450	108.561	139.047	173.377	123.601	105.911	104.311	104.264	129.140	132.267	110.901	191.545	201.118	39.879
44.000	311.342	284.413	250.918	296.087	313.156	314.899	315.162	290.357	286.800	308.620	227.021	220.026	108.394	135.013	168.149	122.599	105.744	104.216	104.097	128.424	132.291	110.495	191.330	200.020	40.826
45.000	311.223	287.325	255.239	297.137	313.395	315.066	315.186	290.835	286.752	309.026	226.997	223.321	108.107	132.124	163.828	121.763	105.577	104.240	104.120	127.946	132.267	109.826	191.306	196.272	39.788
46.000	311.223	289.784	259.011	297.639	313.371	314.899	315.138	291.169	286.919	309.504	227.188	226.663	107.678	129.570	160.151	120.951	105.481	104.192	104.120	127.493	132.339	109.588	191.187	192.977	39.743
47.000	311.628	291.670	261.900	298.188	313.658	314.851	315.281	291.814	286.585	309.480	227.331	229.456	107.630	127.827	156.952	120.211	105.362	104.001	104.001	127.182	132.315	109.444	191.235	189.731	41.819
48.000	312.273	293.174	264.837	298.952	313.729	315.377	315.496	292.100	286.633	309.241	227.451	232.965	107.415	126.036	153.801	119.686	105.171	103.834	104.001	126.872	132.506	109.349	191.020	186.293	42.135
49.000	312.297	294.965	267.296	299.262	313.920	315.568	315.424	292.434	286.896	310.005	227.331	236.403	107.129	124.413	151.247	119.447	105.147	103.977	103.977	126.371	132.291	109.229	190.948	183.046	39.427
50.000	312.583	296.302	270.160	300.169	314.087	315.353	315.711	292.625	286.657	309.838	227.546	239.196	107.057	123.362	149.003	118.946	105.123	103.810	103.977	126.323	132.482	109.062	190.948	180.444	38.886
51.000	313.156	297.424	272.285	300.408	313.968	315.042	315.687	293.127	286.824	309.957	227.331	241.679	107.176	122.264	146.854	118.325	105.075	103.834	103.977	126.084	132.434	108.847	191.044	177.460	42.495
52.000	312.774	298.426	274.243	300.599	313.849	315.019	315.377	293.365	286.800	310.077	227.666	244.067	106.747	121.262	144.896	118.158	104.932	103.739	103.739	125.630	132.458	108.704	190.900	175.072	43.894
53.000	312.392	299.071	275.651	301.387	314.064	315.162	315.329	293.031	286.418	310.459	227.833	246.287	106.532	120.402	143.440	117.848	104.932	103.810	103.929	125.750	132.530	108.776	190.733	172.900	39.608
54.000	312.870	299.859	276.797	301.339	313.968	315.329	315.400	293.294	286.633	310.387	227.522	248.507	106.794	119.447	141.769	117.537	104.861	103.691	103.667	125.368	132.387	108.537	190.709	170.966	37.848
55.000	313.013	300.480	278.635	301.530	314.231	315.281	315.663	293.532	286.394	310.530	227.737	250.178	106.436	118.874	140.551	117.466	104.908	103.786	103.834	125.272	132.482	108.346	190.614	168.746	41.683
56.000	313.013	300.957	279.829	301.649	314.302	315.377	315.615	293.867	286.466	310.554	228.095	252.112	106.412	118.492	139.429	117.203	104.765	103.810	103.906	125.081	132.482	108.203	190.662	167.123	44.616
57.000	313.133	301.435	280.712	301.912	314.231	315.281	315.639	293.938	286.681	310.769	227.546	253.592	106.532	117.967	138.331	116.941	104.670	103.667	103.667	125.057	132.697	108.274	190.495	165.690	40.691
58.000	313.133	302.246	281.834	301.745	314.255	315.281	315.424	293.891	286.657	310.411	227.737	254.714	106.556	117.442	137.591	116.797	104.670	103.762	103.858	125.153	132.625	108.251	190.447	164.401	36.810
59.000	313.061	302.222	282.384	302.366	314.446	315.591	315.759	294.010	286.585	310.984	227.666	256.576	106.174	117.012	136.708	116.845	104.789	103.810	103.786	124.819	132.602	108.155	190.518	162.921	40.149
60.000	313.562	302.604	283.195	302.748	314.589	315.711	315.591	293.891	286.347	310.865	227.880	257.746	106.341	116.654	135.801	116.606	104.646	103.667	103.548	124.819	132.554	108.083	190.471	161.369	45.157
61.000	313.610	303.655	284.055	302.461	314.326	315.257	315.448	294.034	286.394	310.745	227.785	258.701	105.983	116.177	135.180	116.487	104.646	103.667	103.691	124.652	132.649	108.036	190.280	160.366	42.044
62.000	313.729	303.297	284.747	302.103	314.064	315.281	315.759	294.225	286.538	310.936	227.642	259.942	105.983	116.320	134.798	116.368	104.670	103.571	103.810	124.676	132.554	107.940	190.399	159.388	36.495
63.000	313.180	303.846	285.463	302.413	314.493	315.568	315.591	294.153	286.442	311.056	228.024	260.874	105.744	115.723	134.177	116.296	104.550	103.643	103.667	124.461	132.506	107.916	190.232	158.361	39.112
64.000	313.324	304.037	285.750	302.509	314.493	315.472	315.663	294.463	286.681	311.008	228.048	261.876	105.983	115.436	133.580	116.153	104.431	103.595	103.619	124.532	132.578	108.012	190.328	157.358	45.338
65.000	313.825	304.729	286.490	302.461	314.183	315.281	315.400	294.368	286.347	311.056	228.143	263.046	105.863	115.246	133.174	116.129	104.574	103.524	103.595	124.389	132.434	107.869	190.328	156.570	43.308
66.000	313.992	304.490	286.585	302.676	314.350	315.568	315.854	294.678	286.752	311.223	228.167	263.547	105.744	115.126	132.745	116.057	104.479	103.595	103.691	124.556	132.673	107.821	190.351	155.854	36.810
67.000	313.753	304.610	286.896	302.986	314.684	315.663	315.759	294.726	286.275	310.888	227.857	263.786	105.911	114.911	132.100	116.105	104.622	103.691	103.762	124.341	132.458	107.797	190.256	155.186	37.577
68.000	313.920	304.896	287.373	302.915	314.374	315.448	315.639	294.774	286.561	311.414	228.191	264.765	105.815	114.864	132.029	115.938	104.455	103.500	103.691	124.317	132.625	107.797	190.256	154.828	44.751
69.000	313.634	305.517	287.946	302.962	314.302	315.257	315.472	294.487	286.323	311.199	227.857	265.553	105.815	114.625	131.718	115.818	104.359	103.595	103.595	124.341	132.625	107.797	190.256	153.658	44.706
70.000	313.634	305.326	288.018	303.130	314.589	315.400	315.759	294.511	286.585	311.366	227.952	266.269	105.839	114.291	131.193	115.818	104.502	103.619	103.595	124.222	132.792	107.845	190.328	152.822	37.848
71.000	313.634	305.517	288.925	303.177	314.469	315.305	315.400	294.559	286.370	311.079	228.215	266.985	105.625	114.123	131.002	115.890	104.479	103.452	103.667	124.174	132.673	107.797	190.113	152.011	36.089
72.000	313.753	305.732	288.996	302.676	314.374	315.615	315.639	294.941	286.633	311.151	228.071	268.107	105.672	114.028	130.668	115.771	104.407	103.548	103.500	124.222	132.697	107.654	190.280	151.366	43.578
73.000	313.538	305.684	289.187	303.010	314.326	315.424	315.759	294.750	286.394	311.509	228.286	268.800	105.625	114.004	130.310	115.723	104.383	103.548	103.571	124.222	132.530	107.749	190.089	151.199	46.015
74.000	313.133	305.851	289.116	303.058	314.302	315.257	315.663	294.774	286.418	311.247	227.928	268.991	105.553	113.765	129.904	115.675	104.598	103.548	103.667	124.126	132.697	107.606	190.089	150.411	39.653
75.000	313.896	305.899	289.450	303.392	314.398	315.568	315.759	294.726	286.323	311.175	228.334	269.611	105.648	113.646	129.904	115.556	104.359	103.548	103.619	124.126	132.649	107.678	190.089	149.719	35.051
76.000	314.087	306.233	290.095	303.273	314.469	315.520	315.830	294.822	286.156	311.318	228.071	269.754	105.505	113.455	129.570	115.604	104.479	103.643	103.595	124.103	132.578	107.558	190.137	149.313	41.728
77.000	314.016	306.042	289.975	303.177	314.851	315.830	315.711	294.822	286.323	311.414	228.167	270.232	105.648	113.479	129.426	115.556	104.383	103.548	103.667	124.198	132.602	107.678	190.160	148.955	46.782
78.000	313.658	306.400	290.238	303.846	314.660	315.353	315.544	294.917	286.538	311.676	228.167	270.709	105.625	113.216	128.949	115.389	104.383	103.595	103.548	124.103	132.530	107.558	190.160	148.549	41.232
79.000	314.064	306.663	290.119	303.225	314.541	315.520	315.878	294.989	286.490	311.151	228.119	270.996	105.410	113.527	129.116	115.556	104.335	103.548	103.715	124.055	132.625	107.487	190.113	148.239	34.645
80.000	313.753	306.591	290.882	303.559	314.684	315.424	315.663	294.965	286.370	311.533	228.382	270.972	105.625	113.288	128.925	115.580	104.383	103.524	103.548	123.840	132.602	107.558	190.113	148.286	39.698
81.000	314.326	305.803	290.166	303.488	314.732	315.854	316.308	295.108	286.394	311.151	228.143	270.948	105.553	113.264	128.782	115.413	104.455	103.691	103.667	123.912	132.506	107.487	190.089	148.286	46.737
82.000	313.777	306.281	290.691	303.440	314.589	315.568	315.568	295.036	286.776	311.318	228.000	270.709	105.553	113.455	128.662	115.365	104.264	103.548	103.595	124.103	132.482	107.463	190.065	148.358	42.766
83.000	314.231	305.875	290.739	303.464	314.517	315.520	315.950	295.227	286.657	311.628	228.334	271.068	105.529	113.360	128.710	115.508	104.479	103.667	103.667	123.935	132.625	107.439	190.137	148.143	35.096
84.000	313.920	305.923	291.145	303.822	315.066	315.639	315.663	294.750	286.203	311.414	228.024	271.760	105.648	113.145	128.495	115.413	104.455	103.667	103.595	123.959	132.434	107.367	190.137	147.666	38.119
85.000	313.873	306.352	291.050	303.488	314.302	315.568	315.639	295.013	286.442	311.652	228.239	271.736	105.481	113.216	128.471	115.436	104.359	103.643	103.619	123.864	132.458	107.463	190.184	147.379	46.105
86.000	313.968	306.591	291.432	303.631	314.732	315.520	315.711	294.893	286.347	311.390	228.215	272.333	105.625	113.049	128.471	115.460	104.311	103.452	103.619	123.840	132.458	107.391	190.089	146.663	44.255
87.000	313.825	306.543	291.575	303.583	314.875	315.424	315.782	295.132	286.323	311.557	228.215	273.049	105.648	112.763	128.161	115.604	104.455	103.548	103.404	123.888	132.578	107.725	190.208	146.162	35.863
88.000	314.159	306.520	291.145	303.726	314.923	315.687	315.782	295.275	286.561	311.318	228.310	273.574	105.434	112.739	127.970	115.198	104.359	103.500	103.619	123.864	132.602	107.224	190.089	145.493	36.810
89.000	314.040	307.164	291.909	303.631	314.207	315.353	315.687	294.845	286.728	311.748	228.549	273.813	105.386	112.667	127.994	115.317	104.288	103.476	103.548	123.816	132.506	107.463	190.089	145.254	45.203
