-----------------------------------------------------
BloodHound 307 VOC Analyser V2017.1
RoboScientific Ltd 
Espace North
Wisbech Road
Littleport
Cambridgeshire, UK
CB6 1RA 
-----------------------------------------------------
Date = 13/04/2022
Time = 11:59:04
Data is protected by RoboScientific Limited
-----------------------------------------------------
Name of the experiment = "08b_Day 27"
-----------------------------------------------------
Repeat No. = 3/4
-----------------------------------------------------
Experimental Time (in sec) and Flow Profile :
-----------------------------------------------------
Baseline = 2.00
Absorb = 4.00
Pause = 1.00
Desorb = 5.00
Flush = 20.00
Wait = 5.00
Higher Flow (V) = 4.00
Medium Flow (V) = 3.00
Low Flow (V) = 1.00
-----------------------------------------------------
Total Profile Time = 37 in sec
-----------------------------------------------------
Acquired data point per second = 4
--------------------------------------------------
Total data point stored  = 128
-----------------------------------------------------
Acquired sensor responses from 24 sensors
-----------------------------------------------------

Data Points	 Sen-1	 Sen-2	 Sen-3	 Sen-4	 Sen-5	 Sen-6	 Sen-7	 Sen-8	 Sen-9	 Sen-10	 Sen-11	 Sen-12	 Sen-13	 Sen-14	 Sen-15	 Sen-16	 Sen-17	 Sen-18	 Sen-19	 Sen-20	 Sen-21	 Sen-22	 Sen-23	 Sen-24	Humidity (%r.h.)
0.000	303.726	256.505	243.064	300.742	312.154	313.944	314.947	299.381	289.665	300.050	230.936	227.355	116.105	163.279	176.266	118.373	106.699	104.813	104.407	119.376	129.426	118.850	187.319	192.142	42.089
1.000	303.010	257.054	243.541	300.503	312.058	313.944	314.660	299.214	289.569	300.671	230.865	227.021	116.009	163.064	176.075	118.063	106.651	104.884	104.479	119.423	129.307	118.755	187.296	192.261	42.044
2.000	303.870	257.364	243.470	300.838	312.106	314.255	315.114	299.525	289.808	300.360	230.721	227.140	115.986	162.610	175.908	118.015	106.508	104.980	104.407	119.352	129.259	118.683	187.248	192.524	39.833
3.000	303.774	257.698	243.780	300.862	311.963	314.064	314.732	299.214	289.593	300.599	231.103	227.021	115.842	162.300	175.765	118.134	106.579	104.908	104.479	119.423	129.259	118.468	187.248	192.739	39.066
4.000	304.132	258.056	243.995	300.623	312.440	313.992	314.637	299.596	289.832	300.289	231.008	226.949	115.866	162.061	175.717	118.015	106.579	104.884	104.479	119.352	129.283	118.468	187.367	192.858	40.510
5.000	303.846	258.056	243.804	301.100	312.369	313.849	314.804	299.501	289.689	300.312	230.888	226.949	115.771	161.990	175.335	117.991	106.699	104.980	104.407	119.423	129.355	118.397	187.224	192.882	42.360
6.000	303.870	258.462	244.043	300.742	312.010	313.849	314.637	299.310	289.713	300.694	230.865	226.663	115.962	161.703	175.311	118.182	106.747	104.956	104.479	119.304	129.355	118.468	187.248	192.977	41.277
7.000	303.941	258.415	244.425	300.742	312.416	314.040	314.899	299.525	289.713	300.599	231.056	226.830	115.699	161.488	175.144	117.895	106.508	104.884	104.479	119.280	129.379	118.325	187.272	193.145	39.427
8.000	303.917	259.011	243.995	301.220	312.440	314.231	314.517	299.692	289.689	300.456	230.698	226.567	115.651	160.987	174.953	117.895	106.675	104.980	104.431	119.376	129.355	118.325	187.367	193.240	39.337
9.000	303.989	259.393	244.210	300.814	312.201	313.849	314.446	299.596	290.047	300.981	230.912	226.162	115.699	160.677	174.786	117.872	106.460	104.765	104.455	119.328	129.259	118.373	187.272	193.336	41.322
10.000	301.458	257.173	244.305	300.336	312.201	313.920	314.517	298.952	290.047	299.692	230.865	265.791	117.060	162.587	174.881	118.134	106.603	105.004	104.479	119.447	129.092	119.304	187.534	153.467	42.225
11.000	263.237	266.364	240.796	298.713	311.748	313.300	314.422	297.352	290.214	277.991	229.002	297.782	154.613	152.273	178.009	119.590	106.961	105.457	104.670	121.476	128.662	139.740	189.062	122.599	41.367
12.000	238.982	296.326	233.133	294.941	310.578	311.915	313.729	293.150	290.882	230.888	227.833	312.369	180.874	123.458	187.463	123.243	107.821	106.508	105.266	125.272	128.328	187.272	190.518	109.015	31.847
13.000	266.173	311.915	231.987	290.023	309.862	311.342	313.347	288.925	290.715	236.212	226.735	319.650	153.157	107.797	188.012	128.877	108.919	107.487	105.672	129.904	128.376	181.876	191.163	101.757	35.096
14.000	286.251	320.223	242.634	282.694	308.310	309.623	312.583	283.720	290.119	253.449	226.615	323.494	132.387	99.823	174.141	136.302	110.399	108.967	106.436	134.893	128.734	163.852	191.664	96.744	49.579
15.000	300.002	324.854	253.043	273.288	306.352	307.928	311.533	278.206	289.283	267.630	225.660	327.289	117.633	94.356	160.963	144.896	111.999	110.590	107.439	139.931	129.522	149.767	192.524	93.950	51.700
16.000	311.223	328.268	262.449	263.619	304.872	306.376	310.602	272.763	287.946	277.657	225.541	328.125	107.534	91.396	150.220	154.565	113.789	112.357	108.442	145.493	130.692	139.787	193.001	92.518	36.810
17.000	318.337	330.369	270.327	254.428	302.724	304.061	309.002	266.746	287.158	286.442	224.658	329.390	101.327	89.582	141.888	164.807	116.535	114.673	110.160	152.512	131.742	131.957	193.312	91.826	28.283
18.000	322.204	332.184	276.558	245.332	300.145	301.387	307.116	259.751	285.678	292.840	224.896	331.229	96.338	87.767	134.631	174.285	119.041	117.203	111.879	159.579	132.960	125.344	193.622	89.940	39.563
19.000	325.905	332.780	281.333	236.284	296.875	298.331	304.562	252.446	284.317	297.472	224.276	331.396	93.903	86.979	129.498	182.998	122.073	120.140	114.529	167.003	134.249	120.498	193.741	89.295	54.181
20.000	327.719	333.759	285.463	228.668	293.652	295.371	301.172	245.213	283.195	301.697	224.705	332.040	91.277	86.454	124.843	190.304	125.272	123.291	117.513	174.094	135.562	116.344	194.147	88.388	46.872
21.000	329.462	334.261	288.877	223.082	289.999	291.479	297.615	237.764	281.715	304.681	224.228	331.849	89.629	85.762	122.002	196.773	129.211	127.111	121.333	181.279	136.994	113.264	194.458	88.531	31.125
22.000	330.298	334.308	291.169	223.703	285.726	288.233	293.580	232.273	280.450	307.761	224.013	332.924	88.364	85.141	119.567	194.720	133.509	130.978	125.869	187.892	138.427	110.280	194.338	88.245	30.629
23.000	331.085	334.762	293.723	229.695	281.142	283.744	288.519	226.854	278.779	310.101	224.061	333.616	87.385	85.547	117.299	188.728	137.901	134.846	130.739	192.977	140.098	107.701	194.458	88.101	46.511
24.000	332.494	334.786	295.872	235.759	276.129	279.662	282.861	224.586	277.322	312.178	223.774	333.449	87.361	84.473	116.129	182.306	142.652	138.689	136.230	194.434	142.079	105.815	194.505	87.385	54.542
25.000	333.306	335.454	296.922	241.226	270.829	275.818	277.060	226.353	275.412	314.111	223.703	333.879	86.645	84.592	114.864	177.293	148.525	142.915	141.697	192.142	143.583	103.977	194.816	87.003	41.052
26.000	333.544	335.550	297.877	241.632	266.961	274.219	273.240	226.544	275.007	314.469	224.586	333.592	86.669	83.947	114.171	176.672	152.297	144.562	145.708	191.664	144.323	104.693	195.150	87.982	27.967
27.000	333.473	335.550	298.355	241.918	265.887	274.601	272.739	226.209	274.553	313.443	224.180	334.380	86.406	84.377	114.243	176.791	153.300	144.228	146.806	192.309	144.419	104.693	194.696	87.123	35.051
28.000	332.756	334.953	298.522	240.963	265.505	274.649	272.213	225.947	274.911	313.252	224.228	333.497	86.693	83.971	113.932	177.293	153.944	143.989	147.331	192.476	144.132	105.195	194.768	86.478	51.700
29.000	333.401	335.884	298.689	240.342	265.672	275.030	272.022	225.493	274.983	313.347	224.085	334.022	86.645	84.067	113.861	178.248	153.873	143.822	147.403	192.930	143.989	105.099	194.840	87.409	51.113
30.000	333.497	335.024	299.262	243.183	264.168	273.312	270.232	227.307	274.625	314.899	223.941	333.162	86.144	84.234	114.362	174.810	155.066	145.326	148.859	190.566	144.586	103.548	194.649	86.693	34.284
31.000	333.783	335.215	300.623	248.674	260.301	270.136	266.078	229.719	273.192	315.353	224.037	333.520	85.833	84.878	113.025	170.178	159.029	148.931	153.204	188.609	146.066	103.094	194.553	87.123	28.193
32.000	332.303	336.385	300.527	251.372	256.338	266.937	261.852	229.170	272.977	314.016	223.822	333.831	87.266	84.473	112.787	167.003	163.207	151.796	157.478	188.609	145.660	104.741	194.768	87.457	41.728
33.000	331.396	335.836	301.626	252.351	253.855	266.412	261.184	226.066	275.007	309.910	223.941	331.658	88.603	84.497	112.405	165.881	165.762	152.536	158.433	191.282	144.085	108.322	194.410	88.173	54.407
34.000	329.223	336.027	302.103	251.324	253.831	267.916	262.807	225.421	277.060	305.541	224.252	330.584	90.369	85.189	112.070	166.884	165.547	151.056	156.379	193.789	141.793	113.479	194.362	89.176	46.195
35.000	327.600	334.356	301.506	249.629	255.884	269.587	265.839	230.292	279.256	299.358	224.395	328.913	92.088	85.332	112.500	168.865	163.398	148.859	152.918	189.134	139.501	120.116	193.837	90.823	30.313
36.000	324.281	334.189	301.411	247.027	258.868	272.213	269.945	236.928	281.285	291.097	225.135	327.385	94.953	86.144	112.834	172.112	160.581	146.257	148.931	182.449	137.472	127.516	193.121	92.470	31.531
37.000	321.608	334.308	301.291	242.037	261.996	275.126	274.481	244.186	282.956	281.333	225.756	324.138	98.462	85.642	113.694	176.194	157.382	143.727	144.777	175.478	136.039	136.851	192.595	95.120	47.007
38.000	317.119	333.282	300.933	236.857	265.171	277.800	278.397	250.489	284.580	270.829	226.305	321.011	102.473	86.764	113.980	181.423	153.610	140.623	140.480	168.746	134.559	148.072	192.190	98.033	53.098
39.000	312.416	332.685	300.480	231.390	269.277	281.214	282.670	256.290	285.559	260.038	226.472	318.552	107.343	86.908	114.291	186.866	149.814	137.663	136.326	162.634	133.533	159.626	191.402	101.518	40.239
40.000	306.734	331.730	299.596	226.066	272.977	283.625	286.418	260.874	286.275	247.743	227.403	315.042	112.954	87.863	114.911	192.548	145.827	134.869	132.602	157.525	132.482	171.993	191.044	105.171	29.591
41.000	299.835	330.966	298.379	221.291	276.558	286.394	289.928	265.600	287.015	235.472	227.570	310.387	119.686	88.889	115.675	197.442	142.199	132.243	129.020	152.870	131.909	183.380	190.829	109.038	37.036
42.000	290.262	330.321	296.994	221.602	280.020	289.092	293.031	269.372	287.325	223.703	227.475	307.140	128.949	89.725	116.821	197.848	139.143	129.952	125.989	149.480	131.360	195.222	190.447	112.524	49.985
43.000	281.118	329.199	295.490	226.782	283.076	291.312	295.944	272.643	287.755	219.859	228.549	303.583	138.451	90.369	118.445	192.595	135.848	127.660	123.028	146.114	130.930	199.686	190.089	116.153	47.820
44.000	270.041	327.862	294.201	232.178	286.060	293.246	298.474	275.365	288.113	228.167	228.358	299.859	149.146	91.682	120.068	186.532	133.007	125.416	120.617	143.416	130.835	190.471	189.826	119.972	35.682
45.000	259.250	327.075	291.599	238.146	288.662	295.371	300.360	277.943	288.280	236.737	228.668	296.254	160.629	92.422	121.763	180.134	130.525	123.673	118.277	140.957	130.381	181.829	189.635	123.649	32.073
46.000	248.746	325.332	290.166	243.852	291.169	297.233	302.485	279.638	288.805	244.449	228.812	292.434	169.892	94.308	123.506	174.476	127.875	121.667	116.582	138.832	130.429	174.117	189.492	127.254	42.360
47.000	241.584	323.923	287.564	249.581	293.007	298.713	303.965	281.405	288.973	251.109	229.241	289.355	178.582	95.096	125.893	169.319	125.750	120.020	115.174	137.352	130.381	168.006	189.420	130.668	49.399
48.000	235.806	323.685	285.320	254.786	294.965	300.599	305.517	282.956	288.758	256.600	228.955	286.203	184.264	96.576	128.280	164.353	123.840	118.277	113.670	135.490	130.119	162.515	189.229	133.628	42.721
49.000	229.193	322.324	282.193	258.940	296.660	302.031	306.711	284.389	288.782	261.852	229.384	283.458	190.184	98.200	131.097	159.364	122.002	116.702	112.452	134.320	130.190	157.334	189.038	136.374	33.968
50.000	222.175	320.056	278.922	263.547	298.212	303.559	307.594	285.726	289.092	266.842	229.361	280.283	197.322	99.441	134.344	154.637	120.522	115.031	111.426	132.888	129.975	152.297	188.991	139.262	35.998
51.000	223.344	319.101	274.983	268.322	299.859	305.159	308.907	287.015	288.662	270.423	229.552	277.489	196.176	100.969	138.164	150.793	119.065	113.765	110.710	131.861	130.095	148.501	188.967	142.604	45.338
52.000	231.414	317.501	270.972	271.426	301.172	306.400	309.217	287.970	288.829	274.028	229.552	274.744	188.442	102.378	142.604	147.212	117.728	112.619	109.826	130.572	129.952	145.207	188.895	145.302	46.872
53.000	238.910	315.926	267.033	274.458	301.960	307.140	309.862	288.996	288.853	276.487	229.480	271.927	180.802	104.526	146.854	143.894	116.391	111.545	109.086	129.832	129.904	142.557	188.632	147.857	39.788
54.000	245.571	313.562	262.951	277.298	303.440	308.047	310.459	289.498	289.164	278.635	229.432	269.587	174.189	106.245	151.462	141.363	115.341	110.853	108.656	129.020	129.808	140.193	188.632	150.268	34.464
55.000	250.584	311.223	258.773	279.399	303.989	308.429	310.936	290.262	288.996	280.426	229.743	267.081	168.698	108.537	155.210	139.167	114.673	110.065	108.155	128.209	129.904	138.307	188.561	152.202	39.427
56.000	255.645	309.647	254.356	281.357	305.302	309.313	311.151	290.978	289.140	282.264	229.599	265.433	164.520	110.757	159.531	137.472	113.980	109.564	108.012	127.875	129.952	136.970	188.418	154.279	46.150
57.000	260.157	306.902	251.682	283.052	305.445	309.862	312.034	291.670	289.331	283.434	230.029	263.810	159.913	112.810	163.900	135.753	113.288	109.158	107.654	127.230	129.832	135.514	188.394	156.260	43.578
58.000	262.497	304.634	247.695	284.389	305.803	309.695	311.485	291.957	289.211	284.699	230.125	261.733	156.857	115.675	167.767	134.225	112.548	108.704	107.224	126.681	129.904	134.392	188.322	158.218	37.217
59.000	266.006	302.366	244.401	285.702	306.854	310.530	311.987	292.410	289.116	285.630	230.363	260.110	153.371	117.800	171.539	132.983	111.999	108.322	106.938	126.132	129.808	133.318	188.107	159.555	36.540
60.000	268.489	299.501	241.202	286.943	307.140	310.769	312.178	292.959	289.235	286.370	230.244	258.295	151.271	119.996	174.571	131.814	111.593	108.107	106.794	125.798	129.689	132.220	188.012	161.345	42.541
61.000	271.115	297.209	238.791	287.683	307.570	311.056	312.560	293.509	289.283	287.421	229.934	256.720	149.074	122.384	177.818	130.930	111.235	107.630	106.460	125.368	129.832	131.527	188.107	162.515	45.293
62.000	272.715	295.395	236.427	288.853	307.952	311.533	312.703	293.532	289.068	288.424	229.862	255.979	147.236	124.699	180.325	129.952	110.877	107.463	106.460	125.105	129.761	130.739	187.892	164.091	41.142
63.000	274.649	292.983	234.040	289.808	308.238	311.318	312.703	293.700	289.283	289.187	229.957	254.380	145.231	127.039	183.046	129.116	110.686	107.439	106.388	124.843	129.737	130.143	188.131	165.356	36.675
64.000	275.890	290.477	232.249	290.596	308.382	311.652	312.965	294.201	289.140	289.307	230.029	253.186	143.798	129.402	185.338	128.400	110.328	107.248	106.269	124.532	129.713	129.355	187.964	166.621	38.886
65.000	277.418	287.516	230.912	290.954	308.597	311.796	313.037	294.583	289.331	289.784	230.435	252.040	142.175	132.100	187.105	127.707	110.137	107.033	106.078	124.294	129.665	128.973	187.869	167.719	44.526
66.000	278.564	285.081	229.766	291.193	308.764	312.154	313.204	294.893	289.665	290.453	230.363	251.229	140.886	134.869	188.728	127.111	109.874	106.961	106.102	124.055	129.593	128.567	188.012	168.698	43.398
67.000	279.877	282.455	228.907	291.694	308.883	311.963	313.133	295.013	289.283	290.739	230.292	250.130	139.668	137.519	189.969	126.848	109.731	106.842	105.911	123.768	129.641	128.137	187.797	169.725	39.337
68.000	280.856	279.948	227.689	292.386	309.217	312.249	313.252	294.917	289.235	291.193	230.029	249.414	138.689	140.122	190.996	126.323	109.468	106.675	105.792	123.577	129.450	127.707	187.916	170.584	37.262
69.000	281.572	277.036	227.498	293.031	309.170	311.987	313.491	295.108	288.901	291.670	230.316	248.412	137.591	142.891	192.166	125.798	109.325	106.556	105.768	123.434	129.593	127.087	187.845	171.467	41.413
70.000	283.076	274.314	226.926	293.437	309.719	312.297	313.467	295.609	289.307	291.933	230.483	247.719	136.732	145.374	192.810	125.511	109.229	106.365	105.625	123.124	129.593	126.967	187.988	172.255	44.932
71.000	284.007	272.261	226.663	293.867	309.504	312.345	313.586	295.848	289.140	292.148	230.148	246.812	135.824	147.857	193.503	124.986	109.253	106.388	105.720	123.219	129.570	126.609	187.964	172.948	41.909
72.000	284.532	270.136	226.687	294.010	309.957	312.536	313.419	295.657	289.283	292.745	230.172	245.905	135.299	150.196	193.909	124.699	108.871	106.388	105.625	123.052	129.546	126.347	187.773	173.831	37.848
73.000	285.535	267.630	226.949	294.607	309.599	312.178	313.562	296.063	289.355	292.745	230.220	245.141	134.392	152.393	193.980	124.365	108.776	106.293	105.529	122.790	129.665	125.965	187.701	174.452	38.525
74.000	286.227	265.195	226.902	294.416	310.005	312.727	313.825	296.540	289.450	293.103	230.363	244.902	133.676	154.565	194.386	124.317	108.991	106.269	105.553	122.599	129.450	125.678	187.797	175.025	43.172
75.000	286.609	263.309	226.997	294.631	310.005	312.703	313.896	296.326	289.522	293.389	230.316	244.067	132.936	156.666	194.243	123.864	108.585	106.102	105.314	122.503	129.665	125.559	187.773	175.502	44.210
76.000	286.967	261.375	226.878	295.251	310.244	312.846	313.729	296.397	289.355	293.843	230.387	243.589	132.196	158.767	194.290	123.721	108.585	106.126	105.362	122.455	129.546	125.272	187.773	176.194	39.788
77.000	287.588	259.083	227.761	295.395	310.459	312.798	313.586	296.469	289.689	293.843	230.196	242.801	131.766	160.868	194.028	123.315	108.394	105.935	105.243	122.336	129.641	125.153	187.845	176.887	37.848
78.000	288.567	257.293	227.689	295.084	310.053	312.751	313.896	296.803	289.617	294.034	230.148	242.324	131.217	162.801	193.670	123.124	108.465	105.887	105.338	122.169	129.570	124.723	187.797	177.507	39.879
79.000	289.307	254.881	227.904	295.395	310.578	313.085	314.159	296.755	289.450	294.463	230.626	241.584	130.501	164.950	193.312	123.195	108.370	105.839	105.195	122.049	129.450	124.604	187.725	178.104	44.255
80.000	289.737	252.518	228.286	296.111	310.435	312.989	313.873	296.803	289.211	294.607	230.721	241.202	129.952	167.027	193.097	122.718	108.251	105.863	105.266	121.954	129.546	124.437	187.773	178.653	42.405
81.000	289.856	250.680	228.859	296.039	310.339	313.037	313.920	296.875	289.187	294.774	230.865	240.462	129.570	169.056	192.763	122.479	108.060	105.744	105.290	121.835	129.426	124.103	187.725	179.298	39.292
82.000	290.477	248.889	229.098	296.397	310.506	313.061	313.849	297.090	289.402	295.180	230.721	240.223	128.830	170.847	192.237	122.431	108.155	105.887	105.219	121.667	129.498	123.792	187.606	179.680	38.299
83.000	290.906	246.931	229.384	296.636	310.650	313.371	314.255	297.137	289.211	294.774	230.483	239.626	128.519	172.637	191.784	122.240	107.988	105.648	105.147	121.644	129.593	123.768	187.701	180.134	41.819
84.000	291.599	245.380	229.647	296.326	310.530	313.180	314.064	297.209	289.355	295.514	230.865	239.053	128.352	174.356	191.402	122.121	107.892	105.625	105.195	121.620	129.474	123.697	187.630	180.539	43.894
85.000	292.196	243.541	229.910	296.827	310.817	313.228	314.398	297.472	289.474	295.275	230.554	238.982	128.066	176.027	191.068	121.978	107.964	105.577	104.980	121.500	129.522	123.577	187.654	180.707	40.961
86.000	291.837	242.372	230.196	296.803	310.721	313.013	313.968	297.257	289.355	295.466	230.578	239.053	127.445	177.770	190.757	121.787	107.869	105.696	105.123	121.572	129.546	123.506	187.678	180.826	38.525
87.000	292.267	240.748	230.459	297.209	310.674	312.870	313.944	297.185	289.569	295.944	230.650	238.743	127.349	178.964	190.160	121.596	107.773	105.577	105.123	121.381	129.355	123.243	187.749	181.303	39.157
88.000	292.673	239.387	231.079	297.257	310.769	313.228	314.159	297.495	289.522	295.466	230.483	238.480	126.991	180.611	189.946	121.524	107.869	105.553	105.099	121.309	129.402	123.195	187.606	181.518	43.082
89.000	293.127	237.501	231.676	297.257	310.984	313.634	314.064	297.209	289.402	296.039	230.530	237.525	126.466	182.282	189.468	121.381	107.678	105.601	104.908	121.214	129.546	123.052	187.630	181.781	42.947
