-----------------------------------------------------
BloodHound 307 VOC Analyser V2017.1
RoboScientific Ltd 
Espace North
Wisbech Road
Littleport
Cambridgeshire, UK
CB6 1RA 
-----------------------------------------------------
Date = 13/04/2022
Time = 12:08:47
Data is protected by RoboScientific Limited
-----------------------------------------------------
Name of the experiment = "08b_Day 29"
-----------------------------------------------------
Repeat No. = 3/4
-----------------------------------------------------
Experimental Time (in sec) and Flow Profile :
-----------------------------------------------------
Baseline = 2.00
Absorb = 4.00
Pause = 1.00
Desorb = 5.00
Flush = 20.00
Wait = 5.00
Higher Flow (V) = 4.00
Medium Flow (V) = 3.00
Low Flow (V) = 1.00
-----------------------------------------------------
Total Profile Time = 37 in sec
-----------------------------------------------------
Acquired data point per second = 4
--------------------------------------------------
Total data point stored  = 128
-----------------------------------------------------
Acquired sensor responses from 24 sensors
-----------------------------------------------------

Data Points	 Sen-1	 Sen-2	 Sen-3	 Sen-4	 Sen-5	 Sen-6	 Sen-7	 Sen-8	 Sen-9	 Sen-10	 Sen-11	 Sen-12	 Sen-13	 Sen-14	 Sen-15	 Sen-16	 Sen-17	 Sen-18	 Sen-19	 Sen-20	 Sen-21	 Sen-22	 Sen-23	 Sen-24	Humidity (%r.h.)
0.000	313.729	278.373	264.455	304.013	313.204	314.851	315.162	301.602	289.760	310.721	231.581	222.031	105.625	141.482	154.756	114.887	105.577	104.335	104.073	117.370	129.379	107.940	186.746	198.015	40.330
1.000	313.562	278.564	264.574	303.679	313.347	314.517	315.353	301.626	289.784	310.888	231.270	221.912	105.887	141.387	154.732	114.768	105.457	104.216	104.073	117.299	129.307	108.060	186.746	197.848	39.382
2.000	314.135	278.253	264.574	303.893	313.562	314.875	315.496	301.888	289.546	311.008	231.461	221.984	105.625	141.077	154.159	114.744	105.434	104.359	104.073	117.466	129.522	108.083	186.627	197.681	40.285
3.000	313.849	278.277	264.669	303.917	313.443	314.899	315.591	301.435	289.450	310.817	231.963	222.199	105.863	141.029	154.374	114.768	105.529	104.288	104.025	117.275	129.211	107.988	186.866	197.752	41.593
4.000	314.040	278.683	264.717	303.774	313.514	314.971	315.329	301.697	289.378	310.650	231.820	222.318	105.696	141.029	154.446	114.864	105.457	104.311	103.977	117.299	129.450	107.964	186.627	197.585	40.916
5.000	313.825	278.946	264.741	304.299	313.562	314.613	315.162	301.649	289.689	311.032	231.414	222.628	105.720	140.862	154.016	114.935	105.625	104.311	104.001	117.251	129.355	107.988	186.770	197.561	39.427
6.000	313.896	278.898	265.242	304.180	313.467	314.684	315.233	301.602	289.713	310.793	231.652	222.366	105.720	140.886	154.135	114.792	105.457	104.455	104.216	117.370	129.235	107.916	186.770	197.609	39.788
7.000	313.634	278.922	265.004	303.750	313.491	314.660	315.186	301.458	289.474	310.984	231.748	222.461	105.768	140.838	153.944	114.673	105.457	104.311	104.120	117.394	129.498	108.060	186.746	197.513	41.367
8.000	313.562	278.516	264.956	304.228	313.538	314.804	315.090	301.530	289.737	310.936	231.891	222.461	105.720	140.981	154.135	114.792	105.577	104.311	104.073	117.251	129.307	107.916	186.794	197.490	41.277
9.000	313.395	278.755	265.099	303.679	313.085	314.732	315.305	301.506	289.569	310.888	231.390	222.270	105.720	140.766	153.920	114.673	105.457	104.383	104.073	117.322	129.331	108.012	186.627	197.442	39.788
10.000	313.324	276.821	264.813	303.989	313.300	314.565	315.377	301.291	289.689	310.339	231.366	228.191	106.054	142.032	153.968	114.816	105.505	104.455	104.049	117.490	129.307	108.418	186.866	189.110	39.653
11.000	311.939	247.146	262.664	302.867	313.300	314.493	314.995	300.408	290.023	308.310	230.626	252.757	107.248	169.987	155.878	115.675	105.696	104.526	104.073	118.182	128.806	110.423	187.678	166.932	39.157
12.000	310.888	221.984	257.531	301.220	312.727	314.159	315.019	299.549	290.429	305.947	230.172	260.324	108.370	197.991	161.369	117.012	106.030	104.622	104.240	119.423	128.853	112.882	188.155	158.815	37.623
13.000	310.578	218.952	252.613	300.408	312.655	313.944	314.804	299.119	290.453	304.204	230.148	264.478	108.991	200.474	166.693	118.468	106.245	104.956	104.311	119.781	128.686	114.601	188.251	154.804	44.255
14.000	309.910	222.748	247.815	299.477	312.058	313.562	314.923	298.570	290.262	303.321	229.957	266.173	109.397	196.463	170.942	119.471	106.460	104.980	104.264	119.925	128.662	115.580	188.394	152.464	45.518
15.000	309.742	225.899	243.541	297.973	311.939	313.705	314.804	298.594	290.214	302.628	229.934	268.394	109.731	193.670	175.168	120.331	106.508	105.171	104.359	120.402	128.710	116.153	188.179	151.056	38.931
16.000	309.408	228.071	240.963	297.304	312.106	313.658	314.469	298.068	290.357	302.031	229.695	269.587	110.184	191.593	178.606	120.951	106.508	105.314	104.670	120.665	128.639	116.964	188.251	149.647	35.231
17.000	309.480	229.647	238.122	296.899	312.034	313.753	314.637	298.068	290.596	301.530	229.766	270.924	110.017	189.755	181.590	121.715	106.866	105.386	104.550	120.856	128.567	117.227	188.370	148.740	42.721
18.000	309.217	230.674	235.711	296.445	311.819	313.324	314.756	297.830	290.357	301.029	229.934	271.235	110.113	188.800	183.834	122.264	106.890	105.434	104.598	120.904	128.591	117.776	188.418	148.024	47.098
19.000	309.217	231.843	234.088	295.729	311.939	313.324	314.446	297.806	290.453	300.718	229.695	271.378	110.614	187.773	185.983	122.813	106.938	105.481	104.526	120.951	128.639	118.158	188.394	147.761	41.007
20.000	308.620	232.321	232.703	295.227	311.652	313.204	314.255	297.424	290.572	300.432	229.766	272.166	110.495	187.081	187.892	123.386	107.105	105.553	104.502	121.214	128.662	118.301	188.370	147.188	34.554
21.000	308.573	233.061	231.390	295.132	311.461	313.276	314.398	297.495	290.214	300.360	229.790	272.667	110.471	186.436	189.182	123.673	107.129	105.648	104.622	121.381	128.662	118.468	188.418	147.140	39.563
22.000	308.907	233.562	230.865	294.440	311.652	313.276	314.565	297.424	290.620	300.456	229.910	272.691	110.996	186.102	190.447	124.007	107.200	105.553	104.741	121.453	128.662	118.659	188.489	146.902	47.007
23.000	308.525	234.088	229.671	294.010	311.509	313.109	314.422	297.233	290.166	299.835	229.790	272.786	111.139	185.624	191.378	124.556	107.272	105.601	104.837	121.453	128.495	118.683	188.561	146.639	43.037
24.000	308.573	234.398	229.122	294.010	311.247	312.965	314.565	297.209	290.238	299.763	229.934	272.834	110.924	185.529	191.975	124.771	107.320	105.577	104.670	121.596	128.519	118.970	188.537	146.544	35.231
25.000	308.620	234.064	228.859	293.461	311.342	313.133	314.422	297.066	290.310	299.668	229.623	272.906	111.115	185.338	192.739	125.034	107.320	105.625	104.646	121.739	128.591	118.994	188.489	146.496	37.397
26.000	308.501	233.706	228.382	293.700	311.509	312.965	314.302	297.304	290.190	300.121	229.910	272.715	110.972	185.577	193.001	125.129	107.391	105.792	104.837	121.906	128.830	118.898	188.752	146.735	46.376
27.000	308.477	233.395	228.549	293.580	311.581	313.156	314.255	297.161	290.190	300.050	229.575	272.118	111.068	186.150	192.810	125.153	107.224	105.744	104.717	121.620	128.758	118.612	188.274	147.093	44.932
28.000	308.692	233.037	228.597	293.938	311.390	313.061	314.374	296.922	289.832	300.312	229.886	271.688	110.877	186.890	192.906	124.890	107.224	105.577	104.670	121.644	128.901	118.516	188.346	147.451	36.856
29.000	308.453	232.225	228.716	294.082	311.366	313.013	314.135	296.970	290.715	300.838	230.244	271.688	110.853	187.487	193.145	125.010	107.391	105.696	104.765	121.548	128.734	118.254	188.394	148.215	35.863
30.000	308.668	231.509	228.692	293.723	311.390	312.989	314.326	297.257	290.238	300.814	229.766	271.258	110.877	188.083	192.882	124.986	107.343	105.720	104.765	121.691	128.782	118.134	188.394	148.143	44.345
31.000	309.886	227.642	228.501	293.604	311.270	313.109	314.517	297.304	290.071	302.724	230.220	267.725	109.516	191.641	193.216	124.914	107.487	105.839	104.956	121.381	128.734	116.009	187.988	151.772	46.331
32.000	310.483	221.387	228.835	294.559	311.700	313.228	314.207	297.901	289.999	304.395	230.721	256.648	108.943	197.991	192.285	123.888	107.081	105.529	104.789	120.689	128.901	114.219	187.749	162.730	39.518
33.000	311.032	231.748	230.077	295.944	311.915	313.562	314.302	298.426	289.880	305.684	230.721	247.433	108.203	187.009	190.375	123.100	107.105	105.386	104.622	120.211	128.973	113.145	187.582	172.112	37.262
34.000	311.390	240.390	232.154	296.660	311.796	313.443	314.613	298.999	289.808	306.543	230.841	239.960	107.916	179.131	187.940	122.049	106.914	105.290	104.622	119.853	129.164	112.214	187.415	178.844	41.322
35.000	311.891	246.717	234.183	297.472	312.392	313.825	314.684	298.928	289.641	307.164	231.175	234.517	107.606	172.972	185.433	121.023	106.723	105.195	104.526	119.495	129.116	111.736	187.415	184.097	43.623
36.000	312.297	251.133	236.547	298.188	312.249	314.135	314.804	299.596	290.071	307.952	231.079	230.721	107.367	168.173	182.640	120.354	106.532	105.052	104.407	119.399	129.211	111.235	187.272	188.609	40.465
37.000	312.130	254.571	239.125	299.214	312.774	313.825	314.637	299.549	289.641	307.642	230.984	227.761	107.081	164.759	180.086	119.877	106.388	104.908	104.311	119.209	129.235	110.877	187.224	191.569	39.247
38.000	312.369	257.746	241.250	299.525	312.440	313.968	314.804	299.572	289.593	308.095	230.936	224.944	107.057	161.823	177.842	119.304	106.388	104.884	104.407	118.970	129.283	110.542	187.057	193.813	40.239
39.000	312.965	259.990	243.279	299.525	312.297	314.064	314.828	299.931	290.357	308.644	231.247	223.034	106.985	159.793	176.003	118.946	106.245	104.908	104.288	118.779	129.211	110.375	187.128	195.962	42.135
40.000	313.013	261.614	244.807	300.384	312.583	314.231	314.756	300.289	290.071	308.835	231.103	221.912	106.938	157.740	174.261	118.564	106.150	104.789	104.288	118.850	129.379	110.160	187.200	197.370	40.736
41.000	312.536	263.380	246.311	300.503	312.464	313.753	314.899	300.217	289.689	309.074	231.461	220.480	106.866	156.188	172.470	118.182	106.197	104.741	104.288	118.659	129.283	109.993	187.105	198.779	39.292
42.000	312.942	264.622	247.672	300.551	312.703	314.517	315.138	300.503	289.880	309.050	231.629	219.763	106.675	154.637	171.229	117.800	106.174	104.670	104.311	118.636	129.402	109.755	187.033	199.710	40.059
43.000	313.085	266.221	249.390	300.957	312.488	314.183	314.995	300.408	289.904	309.408	231.605	218.522	106.603	153.586	169.772	117.704	105.911	104.550	104.264	118.612	129.379	109.778	187.105	200.521	41.413
44.000	313.037	267.272	250.369	301.196	313.324	314.374	314.995	300.360	289.832	309.146	231.366	217.901	106.579	152.536	168.794	117.466	106.030	104.717	104.240	118.445	129.307	109.492	186.985	201.166	40.736
45.000	312.560	267.773	251.444	301.482	313.085	314.446	314.804	300.336	289.402	309.575	231.390	217.973	106.317	151.867	167.648	117.203	106.030	104.622	104.264	118.421	129.402	109.397	186.914	201.667	39.743
46.000	313.395	268.728	252.398	301.673	312.894	314.231	315.257	300.742	289.593	309.313	231.891	217.281	106.341	150.984	166.860	117.012	105.959	104.693	104.192	118.206	129.259	109.325	186.961	202.002	40.059
47.000	313.204	269.492	253.043	301.936	312.918	314.469	315.377	300.694	289.760	309.647	231.342	217.042	106.341	150.387	165.905	116.988	106.030	104.670	104.144	118.230	129.450	109.468	187.009	202.169	41.097
48.000	313.228	269.898	253.879	301.840	312.965	314.111	315.090	300.838	289.546	309.719	231.581	217.328	106.317	149.934	165.260	116.797	105.863	104.455	104.049	118.110	129.331	109.134	186.985	202.407	40.691
49.000	313.419	270.853	254.762	301.888	313.085	314.446	315.114	300.551	289.617	309.575	231.485	217.424	106.436	149.265	164.377	116.606	105.839	104.431	104.216	118.086	129.355	109.182	186.914	201.381	40.059
50.000	312.894	270.853	255.096	302.222	312.965	314.493	315.114	300.933	289.737	309.766	231.605	216.946	106.484	148.931	163.756	116.702	105.959	104.479	104.192	118.015	129.283	109.158	186.985	202.527	40.194
51.000	313.324	271.426	255.598	302.127	313.061	314.493	315.400	300.957	289.999	310.053	231.318	217.185	105.983	148.239	163.040	116.320	105.792	104.455	104.144	118.063	129.450	109.134	186.961	202.575	40.826
52.000	313.371	271.951	256.839	302.389	312.965	314.302	314.995	300.862	289.450	309.838	231.509	217.066	106.269	147.904	162.539	116.463	106.078	104.693	104.192	117.895	129.235	108.919	186.818	202.479	40.600
53.000	313.562	272.500	256.934	302.795	313.347	314.517	315.114	301.148	289.760	309.910	231.605	217.185	106.174	147.546	161.846	116.320	105.792	104.479	104.216	117.872	129.426	109.038	186.937	202.575	40.239
54.000	313.514	272.404	257.316	302.700	313.037	314.589	315.257	301.029	289.856	310.101	231.581	217.567	106.078	147.069	161.417	116.105	105.744	104.431	104.097	117.848	129.307	108.967	186.890	202.479	40.330
55.000	313.109	272.763	257.818	303.058	313.300	314.804	315.138	301.029	289.546	310.124	231.557	217.472	106.269	146.878	160.987	116.177	105.911	104.550	104.144	117.752	129.307	108.800	186.890	202.360	40.871
56.000	313.109	273.168	258.582	302.843	312.846	314.302	314.947	300.838	289.665	310.268	231.533	217.472	106.150	146.615	160.677	116.105	105.625	104.526	104.097	117.991	129.379	109.062	186.866	202.240	40.600
57.000	313.252	273.765	259.059	302.867	312.965	314.446	315.019	301.291	289.784	310.172	231.796	217.973	106.102	146.305	160.319	116.033	105.672	104.431	104.144	117.895	129.259	108.871	186.937	202.097	39.969
58.000	313.395	273.431	258.916	302.604	313.180	314.804	315.568	301.315	289.832	310.172	231.390	217.949	105.911	146.018	159.937	115.842	105.625	104.455	104.144	117.704	129.402	108.776	187.057	201.978	40.420
59.000	313.371	273.956	259.608	303.034	313.395	314.613	315.496	301.196	289.426	309.957	231.461	218.021	106.412	145.613	159.364	116.081	105.887	104.455	104.120	117.681	129.402	108.776	186.842	201.835	40.826
60.000	313.324	274.195	259.775	303.082	313.013	314.493	315.424	301.220	289.665	310.244	231.247	217.949	105.959	145.565	159.435	115.771	105.720	104.407	104.144	117.704	129.355	108.609	186.937	201.835	40.555
61.000	312.942	274.195	260.038	303.368	313.371	314.684	314.995	301.053	289.593	310.101	231.294	218.307	106.126	145.445	158.982	115.699	105.720	104.526	104.168	117.800	129.426	108.728	187.033	201.691	40.059
62.000	313.586	274.171	260.396	302.819	313.109	314.708	315.257	301.244	289.784	310.363	231.557	218.283	106.102	145.374	158.647	115.675	105.815	104.431	104.168	117.681	129.307	108.633	186.818	201.596	40.285
63.000	313.347	274.625	260.253	302.795	313.228	314.708	315.186	301.339	289.522	309.981	231.843	218.307	106.006	145.183	158.528	115.747	105.696	104.311	104.049	117.681	129.283	108.680	186.794	201.500	40.736
64.000	313.395	274.625	260.850	303.297	313.276	314.756	315.233	301.029	289.474	310.459	231.533	218.713	105.911	145.087	158.480	115.675	105.720	104.455	104.049	117.704	129.283	108.537	186.818	201.238	40.781
65.000	313.467	274.577	260.921	303.177	313.443	314.660	315.090	301.100	289.713	310.483	231.414	218.570	105.887	144.992	158.289	115.580	105.672	104.407	104.168	117.681	129.379	108.370	186.961	201.285	40.149
66.000	313.634	274.768	260.969	303.106	313.347	314.637	315.210	301.602	289.856	310.315	231.509	218.665	105.744	144.777	157.907	115.604	105.792	104.502	104.144	117.513	129.235	108.489	186.866	201.142	40.104
67.000	313.467	275.150	261.733	302.843	313.109	314.493	315.305	301.053	289.378	310.435	231.294	218.952	105.959	144.681	158.051	115.651	105.505	104.335	104.120	117.585	129.402	108.609	186.794	201.094	40.871
68.000	313.419	275.007	261.542	303.058	313.037	314.780	315.186	301.315	290.119	310.817	231.605	218.832	106.006	144.586	157.502	115.580	105.648	104.311	104.120	117.561	129.331	108.561	186.842	200.903	41.007
69.000	313.467	274.983	261.494	303.273	313.252	315.019	315.568	301.196	289.665	310.483	231.270	219.167	106.078	144.419	157.311	115.556	105.696	104.479	104.073	117.609	129.379	108.537	186.890	200.856	40.285
70.000	313.276	275.675	261.542	303.392	313.324	314.613	315.162	301.291	289.951	310.674	231.652	219.238	105.863	144.180	157.191	115.460	105.672	104.407	104.144	117.609	129.331	108.442	186.866	200.712	39.969
71.000	313.801	275.341	261.661	303.416	313.395	314.828	315.210	301.387	289.951	310.363	231.724	219.238	105.959	143.989	157.215	115.293	105.601	104.288	104.192	117.633	129.164	108.370	187.009	200.593	40.646
72.000	313.992	275.818	262.139	303.655	313.276	314.374	315.257	301.578	290.047	310.292	231.605	219.477	105.839	143.989	156.976	115.246	105.553	104.264	104.097	117.752	129.402	108.442	186.842	200.474	41.232
73.000	313.514	275.460	262.497	303.344	313.347	314.923	315.305	301.697	289.665	310.315	231.103	219.620	105.935	143.918	156.666	115.365	105.648	104.479	104.144	117.681	129.474	108.394	186.890	200.426	40.285
74.000	313.920	275.603	262.091	303.416	313.371	314.851	315.377	301.697	289.737	310.578	231.342	219.525	105.792	143.798	156.570	115.198	105.648	104.407	104.144	117.609	129.402	108.322	186.985	200.402	39.879
75.000	313.347	275.842	262.306	303.297	313.061	314.613	315.424	301.411	289.760	310.721	231.509	219.644	105.935	143.774	156.570	115.341	105.625	104.288	103.906	117.394	129.331	108.370	186.985	200.283	40.330
76.000	313.705	275.794	262.569	303.870	313.682	314.660	315.377	301.363	289.522	310.483	231.390	219.596	105.959	143.750	156.379	115.222	105.481	104.264	104.144	117.513	129.331	108.322	186.937	200.307	41.232
77.000	313.801	276.129	263.285	303.750	313.682	314.708	315.019	301.387	289.808	310.530	231.438	219.931	105.959	143.703	156.188	115.317	105.577	104.359	104.025	117.322	129.355	108.203	186.794	200.187	40.600
78.000	313.562	275.938	262.879	303.344	313.228	314.732	315.162	301.339	289.928	310.578	231.533	219.787	105.505	143.631	156.212	115.198	105.529	104.383	104.168	117.490	129.211	108.203	186.723	200.044	39.788
79.000	313.586	275.866	263.285	303.273	313.300	314.613	315.233	301.411	289.641	310.483	231.318	219.931	105.863	143.488	156.021	115.222	105.577	104.288	104.025	117.418	129.426	108.489	186.794	199.996	40.059
80.000	313.968	275.723	263.094	303.464	313.514	314.732	315.210	301.411	289.880	310.865	231.414	220.050	105.815	143.488	155.974	115.150	105.457	104.288	104.144	117.561	129.355	108.418	186.937	200.020	41.232
81.000	313.873	276.367	263.500	303.679	313.252	314.589	315.210	301.554	289.856	310.841	231.223	219.644	106.006	143.559	156.045	115.150	105.481	104.574	104.120	117.561	129.522	108.298	186.866	199.925	40.871
82.000	313.634	276.153	263.237	303.870	313.371	314.637	315.377	301.602	289.808	310.459	231.056	220.074	105.815	143.464	155.735	115.222	105.577	104.359	104.097	117.609	129.379	108.203	186.794	199.901	39.833
83.000	313.944	276.535	263.285	303.774	313.347	314.708	315.448	301.530	289.617	310.578	231.700	220.217	105.839	143.177	155.711	115.102	105.481	104.479	104.001	117.418	129.235	108.227	186.746	199.638	39.833
84.000	313.443	276.678	263.619	303.750	313.276	314.589	315.114	301.315	289.880	310.650	231.533	220.360	105.815	143.106	155.568	115.246	105.720	104.335	104.144	117.442	129.164	108.203	186.961	199.447	41.007
85.000	314.040	276.749	263.571	303.392	313.133	314.732	315.377	301.315	289.951	310.936	231.438	220.527	105.648	142.843	155.496	115.078	105.553	104.359	104.049	117.466	129.283	108.251	186.866	199.328	41.232
86.000	313.729	276.988	263.523	303.870	313.586	314.780	315.281	301.458	289.760	310.865	231.533	220.551	105.553	142.676	155.257	115.031	105.625	104.383	104.192	117.418	129.426	108.131	186.961	199.161	39.969
87.000	313.562	276.893	264.025	303.774	313.300	314.493	315.329	301.578	289.760	310.506	231.485	220.742	105.648	142.724	155.257	115.078	105.553	104.359	104.097	117.442	129.402	108.107	186.914	199.137	39.563
88.000	313.896	277.012	264.049	303.965	313.538	314.875	315.544	301.506	289.665	310.888	231.748	220.909	105.601	142.628	155.234	115.102	105.553	104.359	104.097	117.370	129.259	108.083	186.723	199.017	40.781
89.000	313.825	277.489	264.096	303.941	313.658	314.708	315.138	301.578	289.689	310.841	231.581	220.814	105.648	142.557	154.923	114.935	105.505	104.479	104.073	117.466	129.331	108.155	186.603	198.970	41.458
