-----------------------------------------------------
BloodHound 307 VOC Analyser V2017.1
RoboScientific Ltd 
Espace North
Wisbech Road
Littleport
Cambridgeshire, UK
CB6 1RA 
-----------------------------------------------------
Date = 13/04/2022
Time = 12:51:52
Data is protected by RoboScientific Limited
-----------------------------------------------------
Name of the experiment = "08b_Day 36"
-----------------------------------------------------
Repeat No. = 2/4
-----------------------------------------------------
Experimental Time (in sec) and Flow Profile :
-----------------------------------------------------
Baseline = 2.00
Absorb = 4.00
Pause = 1.00
Desorb = 5.00
Flush = 20.00
Wait = 5.00
Higher Flow (V) = 4.00
Medium Flow (V) = 3.00
Low Flow (V) = 1.00
-----------------------------------------------------
Total Profile Time = 37 in sec
-----------------------------------------------------
Acquired data point per second = 4
--------------------------------------------------
Total data point stored  = 128
-----------------------------------------------------
Acquired sensor responses from 24 sensors
-----------------------------------------------------

Data Points	 Sen-1	 Sen-2	 Sen-3	 Sen-4	 Sen-5	 Sen-6	 Sen-7	 Sen-8	 Sen-9	 Sen-10	 Sen-11	 Sen-12	 Sen-13	 Sen-14	 Sen-15	 Sen-16	 Sen-17	 Sen-18	 Sen-19	 Sen-20	 Sen-21	 Sen-22	 Sen-23	 Sen-24	Humidity (%r.h.)
0.000	303.679	271.163	246.788	301.817	312.536	314.493	314.899	300.503	289.474	302.055	231.939	220.647	115.389	148.764	173.115	116.941	106.412	104.479	104.311	118.182	129.164	116.654	186.555	199.065	40.781
1.000	304.061	271.282	246.358	301.888	312.751	314.541	315.114	300.456	289.808	302.318	232.178	220.456	115.556	148.812	172.876	116.821	106.245	104.311	104.311	118.301	129.188	116.630	186.579	199.137	39.698
2.000	304.204	271.473	246.693	302.198	312.870	314.422	315.019	300.623	289.665	302.127	231.748	220.313	115.556	148.692	172.757	116.821	106.484	104.574	104.407	118.277	129.235	116.702	186.603	199.185	39.337
3.000	304.729	271.378	246.478	301.888	312.989	314.971	315.210	300.885	289.784	302.389	232.106	220.336	115.580	148.310	172.518	116.893	106.293	104.431	104.383	118.182	129.331	116.702	186.532	199.208	40.646
4.000	304.275	271.784	246.669	301.864	312.440	314.231	315.138	300.957	290.119	302.557	232.082	220.122	115.436	148.262	172.494	116.869	106.221	104.335	104.216	118.182	129.164	116.702	186.436	199.304	41.458
5.000	304.610	271.903	247.051	302.007	312.631	314.756	315.305	301.029	289.760	302.175	231.461	220.122	115.484	148.072	172.231	116.726	106.293	104.550	104.431	118.301	129.283	116.582	186.484	199.447	40.871
6.000	304.156	271.712	247.409	301.745	312.536	314.660	314.947	300.694	289.784	302.389	232.154	220.074	115.269	148.167	172.375	116.821	106.317	104.407	104.264	118.182	129.164	116.511	186.460	199.423	39.382
7.000	304.777	271.712	247.385	302.007	312.488	314.804	315.257	301.124	289.975	302.795	232.058	220.169	115.174	147.976	172.112	116.726	106.197	104.335	104.264	118.110	129.188	116.415	186.412	199.447	39.382
8.000	304.729	271.808	247.743	301.769	312.774	314.660	315.090	301.148	290.095	302.557	231.867	219.954	115.198	148.024	172.017	116.726	106.174	104.407	104.288	118.086	129.379	116.535	186.532	199.543	40.510
9.000	304.538	272.070	247.290	302.366	313.037	314.469	314.851	300.671	289.569	302.533	231.987	219.883	115.007	147.904	171.993	116.773	106.269	104.383	104.288	118.110	129.188	116.463	186.484	199.399	41.458
10.000	302.389	269.038	247.409	301.745	312.512	314.517	314.828	300.575	290.119	301.506	231.533	264.096	117.203	149.981	171.897	116.917	106.269	104.383	104.335	118.421	129.068	117.132	186.818	154.971	40.555
11.000	261.637	260.324	243.136	299.907	312.034	314.040	314.589	298.546	290.500	280.617	229.743	296.135	156.332	159.220	175.287	118.397	106.842	104.956	104.598	120.092	128.471	136.994	188.513	124.461	37.713
12.000	237.740	292.816	234.374	296.779	310.984	312.798	313.992	295.060	290.691	235.997	228.453	310.387	182.593	127.039	185.911	122.217	107.534	105.577	104.956	123.864	128.257	184.550	189.587	110.590	31.892
13.000	263.022	309.862	230.411	291.145	309.599	312.321	313.825	290.405	290.477	233.252	227.785	319.101	156.594	109.707	189.277	127.397	108.776	106.747	105.505	128.400	128.018	186.197	190.638	102.449	41.413
14.000	282.598	318.241	241.799	284.198	308.286	310.841	312.989	285.535	290.119	249.868	226.591	323.231	136.302	100.707	175.598	134.893	110.137	107.869	106.221	132.888	128.495	167.767	191.282	98.152	52.783
15.000	297.686	323.828	253.401	275.078	306.782	309.599	311.987	280.736	289.617	263.905	226.639	325.833	121.118	95.669	161.536	143.082	111.951	109.253	107.033	137.687	129.307	153.539	191.975	95.120	47.007
16.000	308.692	327.289	264.049	265.433	304.490	307.713	310.721	274.768	288.591	274.887	225.851	328.077	110.972	92.160	150.077	152.942	114.291	110.924	108.274	143.225	130.286	143.225	192.763	93.043	32.073
17.000	316.546	329.653	271.903	255.979	301.840	305.541	309.241	269.396	288.256	283.959	225.636	329.486	103.142	89.534	141.697	162.778	116.941	113.169	109.969	149.599	131.288	134.631	192.954	92.208	29.456
18.000	321.226	331.324	278.134	246.860	299.286	303.655	307.403	262.497	286.490	290.620	224.992	330.847	97.555	88.722	134.726	171.969	119.829	115.436	111.927	156.642	132.673	127.803	192.954	90.871	42.902
19.000	325.117	332.422	283.386	238.265	296.015	300.766	305.016	255.359	285.153	295.729	225.207	331.133	94.356	86.812	128.782	180.897	123.171	118.254	114.267	163.828	133.843	122.479	193.718	89.653	54.587
20.000	326.669	333.640	287.087	230.125	292.315	297.424	301.864	248.125	283.911	299.477	225.421	333.282	92.017	86.072	124.580	188.442	126.562	120.975	117.012	171.038	134.726	117.824	193.837	88.985	45.383
21.000	329.438	333.735	291.312	223.798	288.328	293.843	298.403	240.939	282.288	303.774	224.777	332.279	90.656	85.237	121.190	195.532	130.692	124.580	120.665	178.200	136.326	114.673	193.909	88.698	30.719
22.000	331.324	333.926	294.272	223.106	284.437	290.500	294.392	234.899	280.903	306.520	224.872	333.067	88.340	85.619	118.683	195.699	134.822	128.352	125.225	185.051	138.021	111.688	193.813	87.385	30.539
23.000	331.443	335.096	295.944	228.644	279.495	286.347	289.426	229.170	279.638	309.170	224.896	333.258	87.648	85.117	116.272	189.969	139.787	132.243	129.689	190.757	139.429	109.373	193.789	87.242	45.744
24.000	331.634	335.072	297.901	234.183	274.553	282.479	284.341	225.684	277.943	311.318	224.753	332.924	86.908	84.759	114.911	183.237	144.299	136.111	135.466	194.386	141.077	106.818	193.885	87.696	54.678
25.000	332.422	335.239	298.999	239.507	269.325	278.635	278.540	225.302	276.630	313.276	224.968	333.306	86.454	84.473	113.097	178.701	149.790	139.811	140.337	193.741	142.318	105.362	194.243	87.481	43.398
26.000	333.377	335.597	300.503	240.462	265.529	277.036	275.102	225.159	275.985	313.204	224.634	334.046	86.573	84.377	113.025	178.128	153.419	141.291	144.085	193.574	143.297	105.505	194.553	87.910	28.960
27.000	332.971	335.287	300.838	240.128	265.123	277.680	274.290	224.920	275.818	312.822	224.705	334.141	86.168	85.213	112.667	178.343	154.732	141.124	145.183	193.861	143.249	105.338	194.171	86.335	32.389
28.000	333.377	335.406	301.124	239.220	264.646	278.158	274.243	224.825	276.224	312.369	224.467	333.688	86.669	84.234	113.097	178.892	155.019	140.647	145.445	193.837	143.058	105.983	194.338	87.910	47.910
29.000	333.258	335.406	300.814	238.910	264.550	278.110	273.908	225.445	276.176	312.345	224.681	333.807	85.690	84.568	112.643	179.489	155.210	140.456	145.541	193.861	142.963	106.126	194.100	87.146	54.497
30.000	333.640	336.290	300.766	242.372	262.688	276.845	271.879	225.923	275.699	313.825	224.968	334.404	85.451	83.828	112.667	175.454	156.523	142.127	147.260	192.309	143.225	105.028	194.529	87.433	41.503
31.000	334.356	335.359	302.318	247.146	258.868	272.882	267.677	227.522	274.147	313.992	224.729	333.115	86.454	83.685	112.261	171.229	160.414	145.851	151.605	190.996	144.538	104.574	194.195	87.433	28.238
32.000	332.613	336.003	302.748	250.345	255.096	270.853	264.502	226.376	274.911	311.963	224.801	333.831	87.027	84.091	111.187	168.388	164.401	148.119	155.162	191.545	143.870	106.556	193.956	87.696	33.697
33.000	331.324	335.168	303.440	250.823	253.998	271.020	264.574	225.398	276.224	307.928	224.872	331.276	89.223	84.449	111.497	168.125	166.215	147.976	154.995	193.694	142.294	110.686	194.219	88.459	49.669
34.000	329.510	334.690	303.535	248.865	254.261	272.381	266.675	229.671	279.041	302.175	225.254	330.489	90.178	84.711	111.092	169.032	165.571	146.376	152.536	190.065	140.193	116.320	193.479	89.940	53.144
35.000	326.549	334.738	304.061	246.597	256.433	274.816	270.542	236.284	280.808	294.726	225.445	327.839	92.852	84.544	110.948	171.945	163.064	144.013	149.003	183.428	138.092	124.389	193.145	90.990	39.157
36.000	323.852	334.571	303.655	242.563	259.608	277.036	274.004	243.279	282.765	285.583	226.209	325.547	95.645	85.428	111.497	175.717	159.865	141.435	145.087	176.099	136.183	134.225	192.214	93.210	28.418
37.000	320.414	333.664	302.795	237.406	262.616	279.757	278.397	249.820	284.413	274.219	226.376	323.231	98.677	86.168	111.927	180.372	156.117	138.785	140.742	169.080	134.678	144.419	191.569	95.980	35.547
38.000	316.690	332.900	302.652	231.915	267.105	282.909	282.240	256.194	285.224	262.163	227.403	319.865	103.070	86.478	112.787	185.601	152.393	136.039	136.660	163.040	133.580	156.379	190.972	99.704	50.166
39.000	312.201	331.945	301.673	226.114	270.996	285.463	286.466	261.685	286.585	250.130	228.167	316.355	107.892	87.528	113.431	191.784	148.358	133.294	132.602	157.358	132.506	169.796	190.662	103.404	50.617
40.000	304.992	331.634	300.790	221.864	274.863	287.803	290.023	266.245	287.373	236.594	228.095	313.061	113.909	88.698	114.482	197.084	144.204	130.716	128.997	152.655	131.790	183.428	189.922	106.842	37.668
41.000	297.758	330.226	298.999	221.220	278.253	290.142	293.246	270.065	287.588	223.846	228.644	308.644	122.766	89.247	115.484	197.752	140.432	128.662	125.845	148.621	131.265	195.962	189.683	111.235	30.178
42.000	287.588	329.677	297.639	226.376	281.858	292.673	296.206	273.264	288.256	221.411	228.549	304.825	131.909	90.083	116.750	192.214	136.970	126.060	122.742	145.493	130.930	197.322	189.492	115.078	37.713
43.000	276.988	328.531	296.469	232.703	285.129	295.084	298.928	276.272	288.424	231.724	229.146	300.241	143.273	91.109	118.492	185.983	133.986	124.103	120.307	142.509	130.692	188.036	189.349	119.399	48.767
44.000	265.242	327.361	294.368	239.316	287.946	296.875	301.196	278.468	288.686	241.059	229.575	296.779	154.756	92.351	120.593	179.680	131.121	122.026	117.919	139.907	130.310	178.582	189.038	123.148	47.910
45.000	253.735	326.263	292.005	245.404	290.763	298.522	303.153	280.665	288.424	248.698	229.289	292.816	166.669	93.759	122.766	173.401	128.448	120.068	116.105	137.854	130.310	170.345	188.919	127.564	37.803
46.000	243.136	324.520	289.641	250.584	292.912	300.456	304.729	282.718	288.782	255.502	229.647	289.187	176.505	95.240	125.010	167.672	126.036	118.349	114.482	136.111	130.166	163.446	188.895	131.026	32.299
47.000	234.780	323.661	286.514	255.836	294.654	302.031	306.090	284.389	288.901	261.566	229.838	285.033	184.144	96.266	127.946	162.467	123.864	116.559	112.930	134.511	130.071	157.430	188.513	134.297	39.202
48.000	227.809	322.276	283.792	260.611	296.779	303.726	307.355	285.821	288.973	266.150	229.814	282.240	191.354	97.675	131.193	158.003	122.097	115.246	112.046	133.294	130.047	153.061	188.418	137.448	47.820
49.000	221.554	320.533	280.068	265.004	298.641	304.920	307.952	286.848	289.092	270.017	229.886	279.232	198.635	99.083	134.320	153.897	120.354	113.527	110.996	131.957	130.047	148.549	188.251	140.146	44.977
50.000	224.490	318.671	276.248	269.301	299.811	306.472	308.955	287.803	288.925	274.123	230.435	276.248	194.625	101.089	138.474	149.552	118.946	112.381	110.065	130.692	129.832	144.586	188.060	143.870	37.307
51.000	233.491	317.215	272.118	272.906	301.220	307.427	309.671	289.020	289.187	277.346	230.316	272.786	186.102	103.524	142.986	145.660	117.513	111.283	109.301	129.784	129.975	141.387	187.892	147.021	34.239
52.000	241.035	314.732	267.152	276.415	302.485	308.597	310.363	289.880	289.283	279.948	230.411	270.304	178.558	104.980	147.331	142.652	116.081	110.137	108.847	128.806	129.904	138.594	187.749	149.623	39.833
53.000	247.481	312.225	262.401	279.113	303.726	309.265	310.936	290.715	289.092	282.049	230.817	267.558	172.279	107.487	152.178	139.835	115.222	109.635	108.298	128.042	129.904	136.732	187.773	152.369	46.105
54.000	253.115	310.005	258.367	281.070	304.490	310.053	311.438	291.432	289.164	283.816	230.698	265.075	166.430	109.683	157.048	137.615	114.291	108.991	107.869	127.087	129.737	134.917	187.630	154.780	45.112
55.000	258.104	307.427	254.070	283.482	305.493	310.339	311.605	292.005	289.164	285.630	230.602	262.927	161.894	112.691	161.632	135.824	113.479	108.418	107.439	126.776	129.689	133.461	187.558	156.905	39.743
56.000	261.423	304.275	249.677	285.057	305.827	310.841	311.891	292.458	289.307	286.919	230.578	261.017	157.860	115.532	166.335	133.915	112.739	107.869	106.985	126.036	129.737	132.243	187.582	158.982	35.728
57.000	264.431	301.411	246.239	285.750	306.543	311.247	312.369	293.174	289.378	287.970	230.936	258.677	154.684	118.373	169.844	132.411	112.142	107.511	106.794	125.583	129.617	130.978	187.606	160.820	37.938
58.000	267.749	298.259	242.992	287.636	307.594	311.533	312.416	293.604	289.140	289.068	230.507	257.006	152.058	121.500	173.664	131.217	111.688	107.415	106.723	125.272	129.737	130.143	187.510	162.587	43.849
59.000	270.948	295.395	239.220	288.734	308.024	311.987	312.560	293.891	289.307	289.665	230.769	255.239	149.623	124.508	177.293	130.238	111.211	107.033	106.460	124.843	129.641	129.283	187.367	164.329	44.842
60.000	273.001	292.482	237.048	289.760	308.215	312.225	312.870	294.559	289.522	290.500	231.318	253.664	147.140	127.516	180.611	129.211	110.805	106.818	106.174	124.508	129.761	128.471	187.415	166.239	41.367
61.000	274.553	289.880	234.565	290.142	308.620	312.130	313.204	294.774	289.522	291.169	231.103	252.375	145.374	130.143	183.309	128.352	110.566	106.675	106.078	124.079	129.665	127.827	187.415	167.958	37.036
62.000	276.320	287.015	232.321	291.336	308.716	312.297	312.942	294.774	289.211	291.718	230.912	250.942	143.607	132.888	185.648	127.612	110.256	106.556	105.959	123.792	129.784	127.158	187.343	169.104	38.074
63.000	277.394	284.055	230.602	292.100	308.883	312.655	313.085	295.251	289.665	292.267	231.509	249.916	142.079	135.323	187.678	126.896	109.898	106.365	105.935	123.482	129.617	126.848	187.296	170.298	43.217
64.000	278.755	281.381	229.241	292.745	309.050	312.631	313.252	295.466	289.498	292.864	231.008	247.982	140.766	138.498	189.635	126.299	109.778	106.174	105.744	123.124	129.665	126.275	187.272	171.515	44.210
65.000	280.426	278.659	228.286	293.079	309.384	312.751	313.491	295.872	289.331	293.294	231.151	247.170	139.620	141.363	191.211	125.869	109.373	106.078	105.577	123.028	129.713	125.869	187.272	172.685	40.691
66.000	281.811	275.460	226.758	293.294	309.456	312.870	313.491	295.991	289.522	293.485	231.032	246.024	138.236	144.610	192.452	125.201	109.349	106.054	105.577	122.694	129.474	125.416	187.248	174.046	37.487
67.000	282.933	272.404	226.042	294.105	310.101	313.133	313.610	296.278	289.569	294.129	231.294	244.735	137.305	147.618	193.359	124.819	109.182	105.983	105.553	122.575	129.689	124.962	187.200	174.786	38.931
68.000	283.816	268.752	225.660	294.416	309.933	313.037	313.538	296.469	289.426	294.272	231.056	243.971	136.302	150.817	194.290	124.341	109.062	105.768	105.410	122.360	129.593	124.604	187.128	175.812	43.533
69.000	284.532	265.362	225.517	294.487	310.172	313.634	314.064	296.708	289.450	294.941	231.557	243.183	135.228	153.897	194.768	124.079	108.800	105.601	105.338	122.145	129.522	124.341	187.176	176.744	44.030
70.000	285.248	262.569	225.421	295.323	310.124	313.514	314.111	297.042	289.522	294.941	231.247	241.894	134.726	157.334	194.887	123.577	108.442	105.601	105.362	122.026	129.593	124.007	187.128	177.603	40.194
71.000	285.774	259.202	225.971	295.323	310.124	313.085	313.944	296.922	289.426	295.156	231.652	241.464	133.724	160.366	194.983	123.243	108.418	105.505	105.195	121.882	129.617	123.912	187.057	178.439	37.938
72.000	286.585	256.123	225.780	295.872	310.172	313.395	314.087	297.113	289.283	295.227	231.199	240.796	133.294	163.541	195.031	123.028	108.442	105.481	105.147	121.620	129.570	123.506	187.057	179.059	39.112
73.000	287.325	252.661	226.376	296.349	310.268	313.467	314.087	297.233	289.259	295.944	231.247	240.008	132.482	166.908	194.911	122.742	108.298	105.434	105.243	121.524	129.641	123.195	187.128	179.656	43.533
74.000	287.898	250.083	226.305	296.278	310.697	313.682	314.111	297.639	289.474	295.896	231.175	239.555	131.981	170.131	194.458	122.431	108.131	105.505	105.147	121.285	129.641	123.028	187.128	180.348	43.398
75.000	288.185	247.075	226.854	296.326	310.459	313.514	313.944	297.686	289.593	296.015	231.223	238.767	131.384	173.043	194.100	122.264	108.107	105.362	105.147	121.262	129.570	122.885	187.152	181.041	39.743
76.000	288.758	243.661	227.379	296.779	310.554	313.729	314.183	297.448	289.474	296.493	231.318	238.600	130.930	176.027	193.574	122.002	108.083	105.266	105.028	121.071	129.546	122.694	187.105	181.661	38.209
77.000	289.259	240.748	227.928	296.564	310.315	313.586	314.111	297.949	289.546	296.708	231.175	237.334	130.166	178.773	193.049	121.739	107.940	105.290	105.052	121.071	129.641	122.408	187.105	182.139	39.698
78.000	290.668	237.501	228.430	296.899	311.127	313.920	314.135	298.116	289.593	296.755	231.390	236.809	129.737	182.163	192.333	121.548	107.869	105.219	104.980	120.832	129.570	122.503	187.081	182.998	43.353
79.000	290.572	234.971	229.050	297.304	310.841	313.753	314.135	297.973	289.569	296.946	231.223	236.785	129.235	184.956	191.951	121.500	107.821	105.171	104.980	120.689	129.546	122.073	187.176	183.452	42.811
80.000	290.715	232.178	229.504	297.448	310.817	313.324	314.207	298.331	289.569	297.257	231.414	235.854	128.615	187.558	191.330	121.166	107.725	105.266	104.956	120.713	129.426	121.858	187.057	184.097	39.698
81.000	291.599	229.647	229.432	297.448	311.247	313.896	314.326	298.021	289.259	297.113	231.223	235.401	128.113	189.874	190.877	120.927	107.821	105.004	104.837	120.593	129.641	121.739	187.105	184.646	38.525
82.000	292.267	227.785	230.459	297.830	311.366	313.729	314.302	298.307	289.689	297.328	231.438	234.422	127.994	192.070	190.184	120.736	107.654	105.123	104.837	120.545	129.498	121.524	187.009	185.099	40.330
83.000	292.196	225.183	230.721	298.283	311.438	313.753	313.968	298.092	289.355	297.686	231.390	234.183	127.158	194.458	189.635	120.617	107.558	105.123	104.908	120.569	129.522	121.357	187.009	185.553	43.262
84.000	292.601	223.416	231.223	298.164	310.984	314.040	314.374	298.498	289.331	297.567	231.342	233.586	127.087	196.272	189.134	120.593	107.511	104.980	104.741	120.307	129.402	121.166	186.914	185.911	42.135
85.000	293.413	221.435	231.485	298.594	311.223	313.801	314.684	298.713	289.689	297.686	231.557	233.634	126.872	198.253	188.537	120.402	107.701	105.075	104.789	120.187	129.474	121.166	187.057	186.221	39.472
86.000	293.103	220.456	231.867	298.856	311.294	313.825	314.183	298.617	289.713	297.854	231.438	233.300	126.562	199.758	188.131	120.307	107.415	104.980	104.813	120.092	129.522	121.071	186.961	186.651	38.886
87.000	293.891	219.095	232.488	298.594	311.485	314.207	314.637	298.594	289.283	297.758	231.270	233.109	126.108	200.951	187.725	120.140	107.343	104.908	104.741	120.187	129.498	120.856	186.985	186.914	40.375
88.000	294.440	218.665	232.822	298.594	311.509	313.777	314.613	298.689	289.378	298.164	231.509	232.393	125.845	201.644	187.319	119.949	107.320	104.956	104.598	120.044	129.522	120.856	186.961	187.176	43.217
89.000	294.511	219.119	233.324	298.403	311.342	313.849	314.541	299.119	289.713	298.116	231.247	232.297	125.320	201.309	187.081	119.996	107.415	104.861	104.646	119.925	129.450	120.665	187.009	187.678	42.044
