-----------------------------------------------------
BloodHound 307 VOC Analyser V2017.1
RoboScientific Ltd 
Espace North
Wisbech Road
Littleport
Cambridgeshire, UK
CB6 1RA 
-----------------------------------------------------
Date = 13/04/2022
Time = 12:22:29
Data is protected by RoboScientific Limited
-----------------------------------------------------
Name of the experiment = "08b_Day 33"
-----------------------------------------------------
Repeat No. = 4/4
-----------------------------------------------------
Experimental Time (in sec) and Flow Profile :
-----------------------------------------------------
Baseline = 2.00
Absorb = 4.00
Pause = 1.00
Desorb = 5.00
Flush = 20.00
Wait = 5.00
Higher Flow (V) = 4.00
Medium Flow (V) = 3.00
Low Flow (V) = 1.00
-----------------------------------------------------
Total Profile Time = 37 in sec
-----------------------------------------------------
Acquired data point per second = 4
--------------------------------------------------
Total data point stored  = 128
-----------------------------------------------------
Acquired sensor responses from 24 sensors
-----------------------------------------------------

Data Points	 Sen-1	 Sen-2	 Sen-3	 Sen-4	 Sen-5	 Sen-6	 Sen-7	 Sen-8	 Sen-9	 Sen-10	 Sen-11	 Sen-12	 Sen-13	 Sen-14	 Sen-15	 Sen-16	 Sen-17	 Sen-18	 Sen-19	 Sen-20	 Sen-21	 Sen-22	 Sen-23	 Sen-24	Humidity (%r.h.)
0.000	306.424	276.248	253.449	303.488	313.109	314.756	314.995	300.766	289.569	305.493	232.345	217.281	112.667	143.559	165.714	115.651	105.911	104.311	104.049	117.752	129.355	113.550	185.839	202.837	40.510
1.000	306.973	276.487	253.139	303.344	313.324	314.899	315.066	301.029	289.713	305.326	232.584	216.946	112.858	143.464	165.260	115.532	105.839	104.240	104.073	117.848	129.713	113.479	185.863	202.718	40.149
2.000	306.543	276.893	253.592	303.010	313.061	314.541	314.899	301.172	289.522	305.374	232.106	217.042	112.524	143.297	165.404	115.532	105.887	104.288	104.264	117.752	129.355	113.312	185.911	202.742	40.691
3.000	307.498	276.439	253.902	303.249	313.180	315.138	315.329	301.339	289.569	305.374	232.369	217.209	112.691	143.058	165.069	115.651	105.887	104.240	104.144	117.824	129.498	113.288	185.815	202.789	41.007
4.000	306.878	276.630	253.950	303.344	313.347	315.019	315.472	301.196	289.593	305.708	232.297	217.328	112.619	142.915	165.022	115.484	105.792	104.288	104.240	117.776	129.474	113.288	185.815	202.670	40.555
5.000	306.997	277.012	254.213	303.535	313.156	314.660	315.162	301.267	289.641	305.803	232.058	217.257	112.715	142.604	164.902	115.460	105.887	104.288	104.216	117.681	129.402	113.216	185.863	202.646	40.149
6.000	307.260	277.084	254.141	303.392	313.228	314.923	315.329	301.124	289.283	305.636	232.297	217.400	112.524	142.604	164.711	115.365	105.839	104.335	104.120	117.824	129.546	113.264	185.815	202.551	40.510
7.000	307.260	277.251	254.619	303.416	312.846	314.804	315.329	301.315	289.283	305.445	232.178	217.424	112.596	142.485	164.544	115.413	105.839	104.192	104.168	117.800	129.450	113.264	185.839	202.479	40.781
8.000	307.116	277.298	254.571	303.297	312.965	314.684	315.257	301.339	289.713	305.923	232.273	217.257	112.619	142.461	164.568	115.508	105.887	104.288	104.168	117.537	129.379	113.216	185.839	202.527	40.600
9.000	306.949	277.752	254.690	303.512	312.822	314.947	315.114	300.909	289.522	305.803	232.202	217.376	112.381	142.270	164.401	115.246	105.696	104.407	104.120	117.633	129.498	113.097	185.792	202.527	40.104
10.000	306.305	275.914	254.237	303.440	312.942	314.875	315.448	301.005	289.760	304.944	232.058	257.436	113.885	143.607	164.473	115.389	105.839	104.216	104.049	117.895	129.259	113.622	186.006	164.329	40.375
11.000	273.622	253.067	251.062	301.363	312.273	314.087	314.541	299.190	290.429	293.413	230.554	293.222	148.453	168.531	167.743	117.012	106.436	104.741	104.311	119.423	128.662	127.134	187.654	128.304	36.810
12.000	225.756	287.755	240.891	297.949	311.652	313.705	314.469	296.015	290.477	251.802	229.193	308.501	193.407	131.599	179.035	120.426	107.129	105.290	104.646	122.909	128.257	168.507	188.943	112.333	46.105
13.000	247.839	305.565	230.029	293.365	310.745	312.416	313.682	291.217	290.906	224.061	228.167	316.833	169.987	112.715	191.306	124.771	108.012	106.388	105.052	127.039	128.185	193.049	190.041	103.786	50.978
14.000	268.728	316.069	237.119	286.490	309.241	311.103	313.252	286.633	290.166	232.679	227.522	321.512	149.958	102.998	180.539	132.076	109.277	107.248	105.672	131.575	128.543	184.813	190.733	98.462	37.623
15.000	285.678	322.419	249.486	278.707	308.047	309.981	312.488	282.312	289.498	248.006	227.212	325.475	133.294	97.364	167.194	140.313	110.901	108.728	106.603	136.397	129.164	171.062	191.330	95.789	29.456
16.000	298.283	326.167	259.704	269.420	305.756	308.047	311.509	277.227	289.116	260.802	226.329	326.645	120.593	93.210	154.350	149.743	112.787	110.184	107.463	141.554	130.023	158.719	191.879	93.282	42.676
17.000	307.546	328.674	267.725	260.062	304.347	306.687	310.244	271.545	287.421	270.280	225.875	328.412	111.139	90.560	144.538	158.982	115.078	112.023	108.656	146.854	130.954	147.952	192.214	92.041	54.362
18.000	314.302	331.133	274.505	250.871	301.196	304.443	308.477	265.433	286.919	279.184	225.589	329.510	103.715	89.247	136.994	167.385	117.394	113.980	110.399	152.870	131.957	138.474	192.643	91.324	41.819
19.000	320.247	331.921	280.092	242.205	298.212	302.055	306.806	259.155	285.774	286.538	225.732	330.250	100.205	87.552	130.763	176.314	120.354	116.320	112.381	159.220	133.055	131.575	193.049	90.107	28.509
20.000	322.897	332.804	284.699	234.995	295.466	299.596	304.180	253.139	284.866	292.196	225.326	331.061	96.194	87.075	125.965	184.407	123.553	119.041	114.768	166.096	134.106	125.559	193.049	90.083	37.623
21.000	325.714	333.282	288.280	227.904	291.694	296.278	300.862	246.764	283.888	296.636	225.087	331.658	93.425	86.335	123.124	191.808	127.087	122.408	118.039	172.733	135.490	121.548	193.216	89.534	53.956
22.000	327.385	334.189	290.811	221.769	287.970	292.673	297.376	240.748	282.503	300.289	225.326	332.446	91.444	85.451	119.781	196.749	130.572	125.678	121.476	178.606	136.541	117.776	193.216	89.056	47.007
23.000	328.794	334.141	293.532	224.276	283.983	289.737	293.580	234.899	280.832	303.726	224.992	332.422	90.536	84.520	118.540	194.243	135.013	129.092	125.583	184.622	137.925	114.625	193.216	88.674	30.133
24.000	330.489	334.977	295.490	229.361	279.399	285.821	289.140	230.411	279.614	306.376	224.825	332.160	89.247	85.499	116.487	188.991	139.382	132.625	129.832	189.325	139.214	111.784	193.312	88.937	32.795
25.000	330.178	335.096	296.994	233.920	274.959	282.169	284.293	226.711	278.779	307.880	225.087	333.138	88.173	85.666	114.601	184.359	144.419	136.278	135.108	193.145	140.384	110.328	193.861	87.672	50.121
26.000	331.706	335.120	298.808	234.231	272.118	280.784	281.500	226.711	278.301	307.928	224.705	332.446	88.125	84.831	114.123	184.192	147.188	137.424	137.830	193.527	140.862	110.757	193.813	88.054	51.745
27.000	331.634	335.072	298.092	233.920	271.068	281.214	280.689	226.973	278.086	307.212	224.872	333.306	88.698	84.998	113.956	184.598	147.976	137.352	138.546	192.930	140.575	111.044	193.837	87.672	34.735
28.000	330.847	335.239	298.379	233.252	271.473	282.002	280.593	227.331	278.373	307.164	225.063	332.470	88.030	85.069	114.649	185.505	148.453	136.875	138.713	192.452	140.313	111.569	193.694	88.388	29.230
29.000	330.226	335.144	298.212	232.416	270.805	282.121	280.330	228.167	278.516	306.591	224.729	332.375	88.555	85.213	114.505	186.341	148.621	136.660	138.713	192.142	140.337	111.879	193.789	88.412	45.518
30.000	331.682	334.953	299.167	234.040	269.826	280.903	279.280	227.355	278.373	307.355	225.278	333.401	87.457	84.377	114.362	183.667	149.217	137.472	139.835	192.763	140.313	110.710	193.694	88.292	54.407
31.000	331.252	334.595	300.336	238.552	266.937	277.919	275.914	225.851	277.657	307.594	225.183	333.115	88.364	85.260	113.718	179.179	152.273	140.527	143.273	193.741	141.220	110.829	193.359	88.078	40.510
32.000	329.581	335.574	300.336	240.653	264.287	277.060	274.386	229.408	278.755	303.559	225.517	330.990	91.444	84.377	112.858	178.009	155.043	141.673	144.896	190.137	139.978	114.625	193.574	89.247	28.238
33.000	326.167	334.117	301.482	239.220	264.455	278.325	276.200	236.236	280.617	296.015	225.875	329.271	93.497	84.878	112.810	178.749	154.780	140.384	142.986	183.428	137.830	122.121	192.619	90.083	39.066
34.000	322.754	333.664	301.387	236.594	266.317	280.426	279.352	243.900	282.837	286.012	226.185	326.215	97.269	85.260	113.383	181.375	152.775	138.164	140.026	175.836	136.183	132.243	192.118	92.566	53.865
35.000	318.528	333.258	300.671	232.345	269.158	282.718	283.100	251.181	283.888	274.625	226.926	323.517	101.112	87.051	114.076	185.624	149.695	135.657	136.183	168.292	134.416	144.419	191.139	95.216	45.338
36.000	312.201	332.279	299.907	226.926	273.001	285.487	286.633	257.316	285.248	259.417	227.570	320.342	107.057	87.170	114.482	190.948	146.042	132.983	132.005	161.321	133.079	159.507	190.590	98.988	30.223
37.000	304.992	331.634	299.453	222.270	276.200	288.400	290.500	262.974	286.490	244.091	228.215	316.021	113.121	88.722	115.436	196.367	142.342	130.501	128.567	155.401	132.243	174.452	189.993	102.234	34.780
38.000	295.896	330.584	297.376	221.506	280.330	290.811	293.938	268.036	287.421	228.024	228.597	311.628	123.601	89.462	115.795	197.848	138.928	127.970	125.272	151.032	131.670	190.829	189.611	107.845	49.760
39.000	283.792	329.175	296.373	226.902	283.529	293.103	296.970	272.070	287.898	222.581	228.621	306.639	136.779	90.847	117.418	192.357	135.442	125.607	122.073	146.949	131.121	197.394	189.301	112.500	48.406
40.000	268.274	327.719	294.583	233.467	286.824	295.490	299.549	275.007	287.707	234.231	229.337	302.175	151.772	92.064	119.280	185.266	132.005	123.052	119.280	143.345	130.739	184.383	188.871	117.991	34.870
41.000	251.611	325.881	292.840	240.199	289.593	297.519	301.888	277.752	288.447	245.117	229.575	296.970	167.385	93.807	121.405	178.152	128.925	121.166	116.964	140.551	130.405	172.900	188.442	122.193	33.020
42.000	235.592	323.971	289.832	247.027	292.601	299.620	303.822	280.521	288.447	254.714	229.981	292.076	183.094	95.335	124.771	171.802	126.275	118.898	115.055	138.188	130.381	164.234	188.251	127.134	44.842
43.000	222.509	322.372	286.919	253.210	294.607	301.506	305.684	282.837	288.829	262.497	229.957	287.970	196.344	97.269	126.705	165.547	123.840	116.845	113.383	136.039	130.286	156.523	188.060	132.291	48.993
44.000	220.742	320.844	283.673	258.773	297.018	303.893	307.069	284.675	288.853	268.489	230.029	282.861	198.206	99.107	130.381	159.411	121.906	115.126	112.094	134.225	130.166	150.578	187.940	136.755	39.518
45.000	228.286	318.098	280.283	263.667	298.522	304.896	307.952	285.821	288.901	273.312	230.793	278.922	190.948	101.375	134.225	154.589	119.877	113.574	110.972	132.769	130.047	145.469	187.630	141.244	33.427
46.000	235.615	316.284	275.866	268.346	300.503	306.543	309.289	287.397	288.901	277.131	230.268	274.362	183.786	103.285	138.236	150.196	118.349	112.023	109.707	131.169	130.119	141.745	187.487	144.538	40.555
47.000	242.706	312.918	271.617	271.736	301.721	307.761	310.124	288.734	288.829	280.283	230.769	271.473	177.484	106.317	142.891	146.902	116.821	111.092	108.967	130.095	129.952	138.522	187.463	148.119	47.459
48.000	248.746	310.339	267.081	275.054	303.034	308.597	310.697	289.713	288.973	283.315	230.721	268.012	171.014	109.540	147.188	143.512	115.914	110.184	108.418	129.140	130.023	135.586	187.200	151.963	42.180
49.000	254.141	306.496	262.425	278.110	304.443	309.599	311.151	290.715	289.092	285.654	230.912	265.147	165.117	113.001	152.512	140.265	114.505	109.516	108.131	128.137	129.832	133.270	187.224	155.114	35.682
50.000	259.226	302.509	257.889	281.261	305.111	310.339	311.891	291.408	289.116	287.707	231.294	260.897	159.841	116.630	157.573	137.376	113.527	108.609	107.415	127.206	129.880	130.811	187.128	158.361	38.390
51.000	263.619	298.140	251.993	283.792	306.066	310.793	311.891	291.885	289.140	289.569	231.629	257.913	155.974	121.071	162.730	135.108	112.596	107.892	107.081	126.394	129.880	129.570	187.009	161.655	45.518
52.000	266.770	294.440	247.242	285.487	307.093	311.270	312.178	292.673	289.283	290.691	231.485	255.263	152.464	125.774	168.603	132.983	111.808	107.487	106.794	125.798	129.999	128.233	186.914	164.878	43.488
53.000	270.327	290.047	242.467	287.373	307.546	311.891	312.679	293.341	288.901	291.814	231.199	252.542	149.074	130.023	173.640	131.121	111.163	107.057	106.460	125.296	129.856	126.943	186.866	167.146	38.119
54.000	273.240	286.299	238.480	288.710	308.143	312.225	312.894	294.058	289.235	293.127	231.438	250.083	146.329	133.962	178.248	129.570	110.733	106.985	106.317	124.819	129.904	125.798	186.746	169.629	37.758
55.000	275.412	282.097	235.019	290.477	308.597	312.154	313.109	294.535	289.068	294.082	231.223	247.385	144.323	137.878	182.163	128.352	110.256	106.484	106.102	124.485	129.928	125.272	186.770	171.826	43.308
56.000	277.466	278.158	231.533	291.360	308.859	312.440	313.443	294.798	289.211	294.607	231.461	245.809	142.175	142.008	185.744	127.493	109.969	106.341	105.983	123.935	129.761	124.174	186.770	174.117	44.165
57.000	278.874	273.574	229.193	292.076	309.170	312.655	313.204	295.084	289.140	295.108	231.676	243.685	140.551	146.018	188.991	126.347	109.373	106.197	105.672	123.434	129.928	123.649	186.484	176.003	39.608
58.000	281.190	269.659	227.785	293.031	309.647	312.894	313.491	295.395	289.116	295.681	231.676	241.512	138.689	150.435	191.378	125.607	109.206	106.078	105.505	123.171	129.880	123.171	186.532	177.722	38.074
59.000	282.646	264.813	226.615	293.700	310.172	313.347	313.753	296.135	289.235	295.944	231.461	240.509	137.448	154.374	193.216	124.843	108.943	105.815	105.481	122.790	129.737	122.670	186.412	179.298	41.503
60.000	283.601	260.515	225.851	294.416	310.029	313.228	313.753	296.636	289.235	296.564	231.867	239.101	136.039	158.647	194.338	124.246	108.704	105.935	105.386	122.694	129.880	122.336	186.388	180.683	44.345
61.000	284.771	256.361	225.493	294.917	310.268	313.156	313.658	296.445	289.116	296.851	231.867	238.051	134.965	163.160	194.720	123.721	108.513	105.625	105.243	122.193	129.832	121.811	186.341	181.876	40.961
62.000	285.678	252.184	225.803	295.586	310.339	313.061	313.729	296.373	288.925	297.424	231.676	236.308	133.724	167.910	194.935	123.219	108.322	105.529	105.075	122.026	129.761	121.429	186.317	183.165	38.615
63.000	286.585	247.457	226.185	295.777	310.697	313.419	313.992	296.827	289.092	297.686	231.796	235.401	132.745	171.778	194.481	122.670	108.083	105.338	105.123	121.954	129.904	121.071	186.221	183.953	39.698
64.000	287.898	243.589	227.140	296.421	310.554	313.204	313.968	297.209	289.259	298.092	231.772	234.398	131.670	175.932	194.052	122.217	108.036	105.410	104.956	121.715	129.832	120.951	186.245	185.266	43.353
65.000	289.020	239.984	227.570	296.636	310.817	313.491	314.183	297.233	289.259	298.259	231.891	233.300	131.097	179.728	193.168	121.787	107.773	105.314	105.052	121.476	129.808	120.593	186.293	186.126	41.909
66.000	289.140	236.045	228.692	297.137	310.936	313.634	314.064	297.281	289.355	298.450	231.796	232.655	130.214	183.595	192.023	121.381	107.773	105.434	105.028	121.262	129.737	120.402	186.293	186.961	39.112
67.000	290.166	232.273	229.122	296.946	310.865	313.634	314.350	297.710	289.378	298.689	231.748	232.058	129.546	187.081	191.163	121.214	107.630	105.147	105.004	121.095	129.856	120.211	186.293	187.725	39.066
68.000	290.787	228.453	229.766	297.734	310.936	313.729	314.255	297.901	289.307	298.665	231.652	231.151	128.686	190.662	190.184	120.880	107.606	105.171	104.884	120.999	129.761	119.781	186.197	188.489	42.315
69.000	291.670	225.207	230.936	297.901	311.294	313.658	314.135	297.830	289.259	298.999	231.772	230.602	128.066	194.147	189.349	120.736	107.487	105.052	104.765	120.713	129.665	119.758	186.365	189.110	42.586
70.000	292.076	222.557	231.724	297.949	311.247	313.705	314.255	297.830	289.164	299.143	232.106	229.981	127.397	197.131	188.489	120.402	107.391	104.908	104.741	120.641	129.904	119.662	186.174	189.778	39.563
71.000	292.625	219.811	232.703	298.235	311.581	314.111	314.302	297.949	289.044	299.811	231.629	229.074	126.800	199.686	187.582	120.163	107.534	105.243	104.789	120.402	129.522	119.209	186.245	190.495	39.112
72.000	293.246	219.000	233.133	298.641	311.414	313.896	314.231	298.259	289.164	299.716	231.939	228.406	126.156	201.238	186.842	120.092	107.367	105.075	104.550	120.402	129.617	119.137	186.197	191.139	41.187
73.000	293.938	219.334	233.825	299.047	311.652	313.920	314.398	298.403	289.116	299.978	232.130	227.618	125.678	201.071	186.030	119.662	107.224	104.932	104.693	120.450	129.737	118.970	186.174	191.641	42.811
74.000	294.129	221.077	234.541	298.952	311.461	313.753	314.135	298.450	289.164	300.432	231.891	227.737	125.129	199.185	185.266	119.638	107.200	104.837	104.646	120.235	129.737	118.874	186.221	192.357	40.330
75.000	295.036	223.321	235.233	298.808	311.461	313.968	314.398	298.474	289.307	300.074	232.130	226.830	124.461	196.797	184.383	119.423	107.129	104.956	104.574	120.163	129.808	118.731	186.293	192.930	39.247
76.000	295.609	225.803	236.045	299.405	311.581	314.040	314.756	298.856	289.259	300.432	231.915	226.400	124.413	194.529	183.738	119.376	107.129	104.741	104.693	119.949	129.665	118.397	186.150	193.192	40.239
77.000	295.562	228.191	236.356	299.692	311.724	314.231	314.517	298.617	289.593	300.599	232.321	225.971	123.816	192.261	183.118	119.065	107.105	105.075	104.550	119.949	129.761	118.516	186.174	193.622	42.586
78.000	296.015	230.435	237.310	299.620	311.748	313.920	314.446	298.904	289.450	300.575	231.963	225.493	123.410	189.683	182.402	118.970	106.866	104.908	104.646	119.781	129.761	118.277	186.197	194.195	41.187
79.000	296.588	232.918	237.430	299.668	311.891	314.087	314.565	298.976	289.355	300.503	232.130	224.872	122.909	186.961	181.757	118.803	106.866	104.717	104.574	119.758	129.737	118.182	186.078	194.816	39.247
80.000	296.970	235.496	238.194	299.763	311.867	314.087	314.517	299.238	289.569	301.076	232.273	224.132	122.527	184.502	181.112	118.755	106.938	104.693	104.431	119.614	129.689	117.776	186.006	195.365	39.698
81.000	297.400	237.955	239.101	299.883	311.772	313.896	314.493	299.143	289.283	301.267	231.700	223.440	122.264	182.258	180.492	118.707	106.842	104.861	104.598	119.686	129.737	117.895	186.150	195.866	41.999
82.000	297.663	239.865	239.722	299.931	311.963	314.207	314.374	299.143	289.187	301.244	232.154	223.153	121.811	180.110	179.919	118.468	106.818	104.717	104.455	119.471	129.641	117.704	186.054	196.463	41.503
83.000	297.901	241.632	240.247	299.931	312.058	314.111	314.613	299.501	289.211	301.244	231.796	222.819	121.667	178.534	179.393	118.349	106.842	104.765	104.622	119.471	129.546	117.442	186.126	196.726	39.427
84.000	298.116	243.446	240.533	300.289	311.557	313.825	314.326	299.119	289.689	301.626	232.345	222.700	121.262	176.553	178.964	118.110	106.747	104.670	104.431	119.471	129.713	117.537	186.006	196.821	39.292
85.000	298.617	245.141	240.868	300.336	311.819	314.016	314.589	299.310	289.402	301.673	232.058	222.461	120.975	174.881	178.176	118.110	106.723	104.717	104.526	119.328	129.570	117.203	186.078	197.227	41.322
86.000	298.713	246.454	241.727	300.766	312.201	314.183	314.517	299.358	289.450	301.721	232.011	222.270	120.904	173.186	177.913	117.991	106.770	104.693	104.335	119.280	129.761	117.418	185.983	197.203	41.864
87.000	298.808	248.197	241.727	300.957	312.178	314.231	314.637	299.453	289.187	301.602	232.034	222.127	120.545	171.897	177.531	117.919	106.579	104.693	104.407	119.376	129.665	117.227	185.911	197.275	40.149
88.000	299.262	249.247	242.276	300.766	311.939	314.255	314.684	299.668	289.283	301.554	231.915	222.031	120.378	170.393	177.173	117.943	106.579	104.670	104.407	119.232	129.713	117.418	185.983	197.466	39.292
89.000	299.429	250.632	242.658	300.694	312.369	314.255	314.875	299.668	289.402	301.793	231.915	222.055	120.092	169.367	176.767	117.657	106.508	104.646	104.550	119.232	129.641	117.179	185.959	197.704	40.871
