-----------------------------------------------------
BloodHound 307 VOC Analyser V2017.1
RoboScientific Ltd 
Espace North
Wisbech Road
Littleport
Cambridgeshire, UK
CB6 1RA 
-----------------------------------------------------
Date = 13/04/2022
Time = 12:08:06
Data is protected by RoboScientific Limited
-----------------------------------------------------
Name of the experiment = "08b_Day 29"
-----------------------------------------------------
Repeat No. = 2/4
-----------------------------------------------------
Experimental Time (in sec) and Flow Profile :
-----------------------------------------------------
Baseline = 2.00
Absorb = 4.00
Pause = 1.00
Desorb = 5.00
Flush = 20.00
Wait = 5.00
Higher Flow (V) = 4.00
Medium Flow (V) = 3.00
Low Flow (V) = 1.00
-----------------------------------------------------
Total Profile Time = 37 in sec
-----------------------------------------------------
Acquired data point per second = 4
--------------------------------------------------
Total data point stored  = 128
-----------------------------------------------------
Acquired sensor responses from 24 sensors
-----------------------------------------------------

Data Points	 Sen-1	 Sen-2	 Sen-3	 Sen-4	 Sen-5	 Sen-6	 Sen-7	 Sen-8	 Sen-9	 Sen-10	 Sen-11	 Sen-12	 Sen-13	 Sen-14	 Sen-15	 Sen-16	 Sen-17	 Sen-18	 Sen-19	 Sen-20	 Sen-21	 Sen-22	 Sen-23	 Sen-24	Humidity (%r.h.)
0.000	313.419	276.940	261.279	303.273	313.133	314.565	315.162	301.339	289.928	310.435	231.294	219.071	106.245	143.010	157.693	115.269	105.696	104.383	104.120	117.728	129.474	108.585	186.723	200.880	39.833
1.000	313.920	276.415	261.041	303.440	313.562	314.851	315.544	301.578	289.617	309.957	231.223	219.167	106.269	142.915	157.764	115.341	105.720	104.526	104.120	117.728	129.498	108.847	186.937	200.784	40.826
2.000	313.204	276.439	261.208	303.559	313.300	314.732	315.329	301.267	289.641	310.674	231.796	219.286	106.102	142.867	157.740	115.269	105.625	104.264	104.073	117.657	129.402	108.656	186.818	200.808	41.007
3.000	313.634	277.179	261.494	303.368	313.013	314.708	315.472	301.626	289.641	310.053	231.557	219.071	106.245	142.772	157.478	115.269	105.601	104.383	104.311	117.967	129.617	108.800	186.794	200.665	40.194
4.000	313.443	277.012	261.828	303.297	313.324	314.804	315.114	301.244	289.665	310.459	231.461	219.238	106.078	142.700	157.430	115.317	105.625	104.407	104.192	117.585	129.379	108.824	186.746	200.784	39.833
5.000	313.180	277.203	261.876	303.392	313.347	314.660	315.186	301.148	289.713	310.220	231.533	219.572	106.221	142.748	157.382	115.222	105.553	104.359	104.240	117.633	129.379	108.847	186.746	200.617	40.646
6.000	313.300	277.346	261.733	303.655	313.252	314.469	315.210	301.435	289.832	310.196	231.366	219.334	105.911	142.652	157.382	115.389	105.696	104.431	103.977	117.609	129.402	108.513	186.699	200.593	41.052
7.000	313.586	277.060	262.401	303.607	313.300	314.851	315.305	301.411	289.760	310.459	231.247	219.668	106.293	142.581	157.358	115.055	105.625	104.431	104.240	117.704	129.450	108.656	186.723	200.617	40.600
8.000	313.276	277.370	261.805	303.965	313.300	314.660	315.090	301.315	289.450	310.172	231.581	219.787	106.317	142.342	157.120	115.317	105.720	104.407	104.001	117.466	129.379	108.728	186.770	200.426	39.743
9.000	313.777	277.203	262.043	303.440	313.109	314.851	315.257	301.458	289.737	310.101	231.414	219.811	106.197	142.413	157.072	115.222	105.720	104.311	104.120	117.490	129.355	108.561	186.603	200.378	40.285
10.000	312.727	275.580	261.494	303.082	312.989	314.828	315.257	301.100	289.784	309.623	230.984	239.626	106.747	143.488	157.096	115.341	105.672	104.455	104.097	117.728	129.355	109.110	186.770	181.065	41.007
11.000	309.528	239.817	259.417	302.294	312.798	314.446	315.186	299.907	290.142	306.591	229.910	269.229	109.946	181.112	159.507	116.463	105.839	104.670	104.288	118.994	128.853	112.357	187.988	151.366	41.638
12.000	305.612	237.191	252.804	299.883	312.273	313.610	314.732	298.522	290.500	299.740	229.193	280.092	113.813	181.375	165.881	118.636	106.341	105.171	104.526	120.522	128.710	119.280	188.680	139.811	46.962
13.000	303.106	250.083	245.165	298.068	312.297	313.801	314.613	297.042	290.214	294.034	229.671	286.347	116.224	168.507	173.783	120.498	106.842	105.243	104.550	121.548	128.519	124.699	189.134	132.864	41.052
14.000	301.220	258.892	238.409	296.087	311.605	313.109	314.111	296.135	290.333	290.023	229.098	290.286	118.230	160.653	180.969	122.766	107.129	105.625	104.670	122.408	128.543	128.376	189.110	129.068	32.705
15.000	300.312	264.932	233.586	293.795	311.485	313.037	314.541	295.920	290.739	287.898	229.480	293.652	119.710	154.016	187.463	124.532	107.391	105.863	104.765	123.386	128.376	131.217	189.301	126.036	39.247
16.000	298.785	269.349	229.886	292.458	310.984	313.013	314.326	294.989	290.548	285.201	228.979	295.753	120.760	149.934	191.545	126.275	107.630	106.078	105.052	124.007	128.495	133.580	189.277	123.744	49.579
17.000	297.233	272.786	228.525	290.453	310.912	312.560	314.064	294.129	290.238	283.506	229.074	297.495	122.026	146.066	193.192	128.137	107.892	106.150	104.932	124.580	128.543	135.490	189.277	122.121	44.526
18.000	296.803	275.747	229.432	288.543	310.554	312.464	313.944	293.676	290.262	281.978	229.193	299.262	122.599	143.464	191.044	129.952	108.274	106.603	105.290	125.177	128.519	136.684	189.396	120.713	32.659
19.000	296.087	277.943	231.366	287.063	310.554	312.321	313.849	293.174	290.071	280.545	228.955	300.193	123.458	141.363	188.370	131.503	108.489	106.556	105.290	125.702	128.686	138.140	189.516	119.686	35.682
20.000	295.442	280.211	233.634	285.606	310.005	311.772	313.586	292.601	290.286	279.781	228.812	300.432	124.413	139.429	185.123	133.294	108.871	106.842	105.290	126.084	128.662	139.310	189.516	118.397	48.271
21.000	294.822	281.381	236.117	284.079	309.766	311.676	313.514	292.315	290.214	278.612	228.453	301.220	124.699	137.782	181.829	134.416	108.871	106.985	105.457	126.633	128.686	140.122	189.587	117.824	47.413
22.000	294.153	283.052	238.456	282.503	309.623	311.557	313.324	291.575	290.023	278.062	228.597	301.817	125.248	136.732	178.391	135.968	109.206	107.129	105.457	127.087	128.662	141.244	189.635	117.681	34.464
23.000	293.867	283.935	241.417	281.620	309.599	311.485	313.467	291.050	290.047	276.917	228.716	302.867	125.845	135.490	175.741	137.281	109.397	107.367	105.625	127.469	128.639	141.841	189.635	116.893	33.066
24.000	293.819	284.580	243.541	280.307	309.337	311.628	313.658	290.906	290.262	276.439	228.692	302.962	126.108	134.631	173.783	138.427	109.564	107.367	105.911	128.066	128.901	142.652	189.635	116.654	46.285
25.000	293.341	285.248	245.165	279.423	308.644	311.103	313.109	290.572	290.095	276.320	228.382	303.249	126.180	134.058	170.966	139.477	109.802	107.701	106.006	128.209	128.853	142.843	189.587	116.129	50.166
26.000	293.628	285.320	245.690	278.755	308.835	311.366	313.180	290.572	290.286	277.227	228.597	303.488	126.299	134.106	170.083	139.692	109.850	107.606	106.126	128.257	129.020	142.175	189.755	116.391	38.390
27.000	293.795	285.392	245.475	279.208	308.740	311.151	313.109	290.859	290.333	277.800	228.692	302.580	126.012	134.607	169.820	139.692	109.874	107.391	105.983	128.233	129.020	141.268	189.564	116.797	31.261
28.000	294.296	284.484	246.120	279.734	309.098	311.533	313.419	290.715	290.071	278.564	228.740	302.557	125.439	135.228	170.799	139.334	110.041	107.534	106.006	127.946	128.949	139.931	189.611	117.370	41.954
29.000	294.177	283.697	246.024	279.686	308.620	311.294	313.276	290.715	290.166	279.948	228.788	302.580	125.248	135.657	170.250	139.238	109.969	107.534	106.054	127.994	128.973	139.310	189.564	117.394	51.068
30.000	295.562	283.816	246.072	279.662	308.907	311.366	312.918	290.477	289.951	279.686	228.835	302.007	124.389	136.087	170.226	139.310	109.874	107.582	106.054	128.161	129.140	139.501	189.635	117.609	41.593
31.000	300.336	278.683	246.860	279.328	308.573	311.103	313.013	291.408	289.904	287.588	229.337	297.949	118.540	140.981	169.963	139.191	109.898	107.534	106.054	127.349	129.044	130.668	189.301	122.097	31.351
32.000	303.774	263.619	245.523	281.548	308.979	311.581	313.228	292.625	289.617	293.962	229.337	287.779	115.365	155.377	170.704	137.137	109.635	107.129	105.911	126.251	129.331	124.771	188.871	131.193	38.254
33.000	306.233	246.048	242.443	283.744	309.575	312.201	313.586	293.891	289.450	297.830	230.268	277.370	113.097	172.494	174.189	134.941	109.158	106.890	105.815	124.890	129.235	120.808	188.346	141.769	47.684
34.000	307.737	231.199	238.552	286.060	309.766	312.082	313.753	295.204	289.832	300.289	230.077	268.179	112.094	188.800	178.248	132.434	108.943	106.579	105.505	124.103	129.307	118.612	188.179	151.008	43.217
35.000	308.573	218.570	234.708	288.280	310.148	312.225	313.610	295.395	289.665	302.103	230.363	260.301	110.877	201.190	183.046	130.286	108.465	106.269	105.290	123.195	129.235	116.869	187.845	159.244	36.630
36.000	309.456	224.729	230.865	290.142	310.817	313.013	314.087	296.111	289.402	303.297	230.721	252.971	110.184	194.768	187.678	128.710	108.179	105.911	105.075	122.479	129.259	115.580	187.749	165.857	38.254
37.000	310.077	231.820	228.024	291.551	311.032	313.276	314.183	296.660	289.450	304.132	230.554	247.361	109.898	187.916	191.044	127.254	108.012	105.935	105.147	122.121	129.402	114.744	187.630	171.587	43.939
38.000	310.339	237.621	227.451	292.864	311.008	312.965	314.040	297.137	289.713	305.087	230.769	243.088	109.229	182.258	193.622	126.060	107.606	105.601	104.884	121.691	129.331	114.076	187.510	176.194	43.669
39.000	310.172	242.252	227.164	293.891	311.318	313.371	314.016	297.304	289.546	305.708	231.032	239.626	108.609	177.316	194.076	124.795	107.487	105.577	104.837	121.285	129.522	113.312	187.558	179.775	39.382
40.000	311.318	245.786	228.358	294.798	311.628	313.586	314.637	298.188	289.665	306.114	230.817	236.212	108.298	173.473	192.643	123.935	107.415	105.529	104.670	120.856	129.379	112.667	187.582	182.974	38.705
41.000	311.533	249.104	230.148	295.777	311.939	313.849	314.708	298.283	289.546	306.400	231.056	233.395	108.370	170.417	190.638	123.052	107.129	105.314	104.813	120.689	129.546	112.715	187.415	185.433	42.089
42.000	311.485	251.921	231.820	296.278	311.676	313.825	314.589	298.283	289.355	306.687	231.056	231.294	108.227	167.982	188.465	122.384	107.129	105.219	104.693	120.402	129.355	112.094	187.343	187.606	42.947
43.000	311.843	254.070	233.467	296.612	311.891	313.944	314.684	298.474	289.426	307.021	231.008	229.408	108.322	165.499	186.269	121.691	107.057	105.219	104.598	120.283	129.426	111.855	187.415	189.659	39.698
44.000	311.628	255.979	235.496	297.663	311.772	313.777	314.398	299.071	289.450	307.164	231.175	227.976	107.678	163.398	184.240	121.309	106.890	105.195	104.479	120.092	129.426	111.617	187.272	191.354	39.247
45.000	311.796	257.364	236.857	297.782	312.082	313.968	314.780	299.214	289.593	307.475	231.438	226.353	107.606	161.775	182.402	120.880	106.866	104.956	104.407	119.829	129.402	111.497	187.224	192.763	41.007
46.000	312.034	259.346	238.409	298.331	312.058	313.825	314.780	299.143	289.259	307.475	230.984	225.493	107.654	160.414	180.611	120.474	106.747	105.028	104.526	119.638	129.522	111.283	187.105	194.243	42.405
47.000	311.963	260.706	239.937	298.808	312.225	313.849	314.589	299.214	289.498	307.666	231.294	224.276	107.463	158.958	179.131	120.140	106.723	104.956	104.502	119.567	129.498	111.020	187.248	195.174	40.285
48.000	311.748	261.685	241.273	299.095	312.560	314.207	314.756	299.238	289.378	308.119	231.247	223.321	107.582	157.788	177.675	119.901	106.675	105.028	104.502	119.543	129.593	111.020	187.248	196.200	39.337
49.000	311.939	262.951	243.088	299.047	312.225	313.920	314.708	299.286	289.665	308.382	231.151	222.628	107.320	156.881	176.314	119.495	106.436	104.765	104.526	119.590	129.498	110.662	187.009	196.487	40.285
50.000	312.392	263.834	244.043	299.286	312.512	314.207	315.066	299.549	289.426	308.382	231.127	221.244	107.272	155.997	174.929	119.113	106.508	105.004	104.598	119.447	129.546	110.447	187.128	198.086	41.909
51.000	312.273	264.669	245.284	299.978	312.751	314.040	314.708	299.477	289.211	308.477	231.390	220.504	107.200	154.995	173.950	118.898	106.460	104.908	104.335	119.137	129.379	110.471	187.081	198.826	40.555
52.000	312.106	265.242	246.645	300.503	312.631	314.469	314.923	299.644	289.760	308.740	231.509	219.907	106.914	154.111	172.637	118.731	106.484	104.837	104.455	119.209	129.450	110.256	187.057	199.423	39.472
53.000	312.822	266.173	247.624	300.312	312.512	314.231	315.353	299.954	289.569	308.716	231.414	219.501	107.272	153.491	171.611	118.349	106.293	104.813	104.335	119.065	129.498	110.160	186.985	199.901	40.149
54.000	312.560	266.961	248.483	300.408	312.416	314.374	314.995	300.002	289.402	308.692	231.533	218.761	106.914	152.989	170.584	118.301	106.317	104.789	104.407	118.994	129.474	110.113	186.985	200.593	41.503
55.000	312.679	267.319	249.199	300.647	312.703	314.207	315.233	299.978	289.760	308.979	231.270	218.570	106.747	152.416	170.202	118.039	106.317	104.693	104.359	118.946	129.474	109.802	186.985	200.665	40.736
56.000	312.583	267.821	250.035	300.647	312.369	314.326	315.042	299.978	289.617	308.931	231.247	218.116	106.985	151.939	169.104	117.991	106.317	104.789	104.407	118.898	129.474	109.922	187.009	200.999	39.743
57.000	312.321	268.513	250.417	300.981	312.703	314.278	314.995	300.002	289.450	309.026	231.485	218.164	106.914	151.557	168.579	117.800	106.269	104.670	104.240	118.850	129.498	109.969	187.057	201.333	40.104
58.000	312.631	268.513	251.205	301.196	312.679	314.469	314.971	299.978	289.665	309.217	231.342	217.830	106.651	151.390	168.054	117.657	106.245	104.717	104.216	118.898	129.522	109.755	187.057	201.500	41.052
59.000	312.607	269.182	251.682	301.148	312.679	314.517	315.114	300.217	289.593	309.217	231.414	217.734	106.675	150.817	167.313	117.513	106.197	104.646	104.359	118.612	129.355	109.588	187.009	201.882	40.781
60.000	312.989	269.325	252.446	301.602	312.965	314.087	315.042	300.289	289.975	309.193	231.485	217.400	106.651	150.435	166.741	117.513	106.150	104.670	104.144	118.683	129.331	109.826	187.033	201.978	39.833
61.000	312.679	269.349	252.757	301.554	312.894	314.350	315.329	300.217	289.522	309.146	231.318	217.137	106.747	150.029	166.263	117.442	106.174	104.670	104.264	118.731	129.426	109.444	186.985	202.264	40.014
62.000	312.751	269.922	253.425	301.506	312.798	314.398	314.923	300.121	289.450	309.074	231.199	217.305	106.723	149.599	165.833	117.275	106.221	104.717	104.311	118.516	129.498	109.635	186.961	202.527	40.916
63.000	312.727	270.518	253.712	301.817	312.703	314.183	315.305	300.336	289.283	309.313	231.390	217.424	106.627	149.599	165.308	117.275	106.126	104.622	104.073	118.540	129.546	109.611	187.176	202.407	40.916
64.000	312.536	270.256	254.022	301.482	312.774	314.135	314.708	300.551	289.617	309.575	231.652	217.161	106.532	149.504	164.974	117.179	106.150	104.550	104.168	118.445	129.331	109.588	186.890	202.360	40.194
65.000	312.727	270.614	254.666	301.793	312.512	314.350	314.828	300.360	289.832	309.337	231.438	217.495	106.770	149.313	164.855	117.108	106.054	104.526	104.120	118.492	129.379	109.420	186.961	202.455	40.059
66.000	313.061	270.495	254.404	302.079	313.061	314.565	315.210	300.408	289.402	309.313	231.247	217.137	106.675	148.979	164.449	116.869	106.054	104.622	104.144	118.445	129.498	109.588	186.890	202.503	40.781
67.000	312.870	270.781	254.762	301.506	312.942	314.517	315.257	300.623	289.665	309.886	231.581	216.732	106.436	148.931	164.329	116.941	106.054	104.622	104.335	118.445	129.522	109.397	187.009	202.670	41.007
68.000	312.822	271.258	255.693	302.175	312.894	314.255	314.851	300.766	289.689	309.671	231.581	216.923	106.365	148.621	163.947	116.869	105.983	104.479	104.192	118.445	129.307	109.301	187.057	202.742	40.285
69.000	313.347	271.115	255.478	301.936	312.942	314.923	315.186	300.671	289.856	309.647	231.414	216.851	106.245	148.477	163.637	116.726	105.983	104.407	104.192	118.397	129.450	109.325	186.937	202.622	39.969
70.000	312.846	271.688	255.932	302.270	312.870	314.541	315.114	300.766	289.713	309.623	231.199	216.827	106.436	148.143	163.207	116.845	106.006	104.574	104.144	118.397	129.474	109.325	187.009	202.742	40.600
71.000	313.228	272.094	255.932	302.246	313.109	314.780	315.066	300.623	289.569	309.408	231.318	216.684	106.388	147.809	162.897	116.702	105.983	104.502	104.192	118.254	129.307	109.301	186.985	202.789	40.871
72.000	313.324	272.142	256.529	302.413	312.846	314.541	315.472	300.838	289.665	309.695	231.557	216.946	106.508	147.690	162.634	116.678	105.959	104.598	104.240	118.325	129.450	109.206	186.890	202.694	40.375
73.000	312.870	272.046	256.385	302.055	313.037	314.732	315.114	300.575	289.593	309.862	231.223	217.305	106.293	147.546	162.324	116.535	105.935	104.502	104.216	118.158	129.474	109.229	187.033	202.718	40.104
74.000	312.512	272.237	257.149	302.246	312.822	314.446	314.828	300.599	289.999	309.862	231.533	217.114	106.245	147.475	162.228	116.559	105.983	104.526	104.168	118.110	129.426	109.038	186.937	202.766	40.555
75.000	312.894	272.357	257.078	302.533	312.965	314.398	315.042	300.909	289.808	309.981	231.223	217.018	106.365	147.212	161.942	116.559	105.911	104.550	104.168	118.277	129.379	109.158	186.914	202.742	40.826
76.000	313.061	272.476	257.460	302.198	313.085	314.469	315.210	300.599	289.474	309.814	231.270	217.281	106.365	147.212	161.870	116.535	106.054	104.574	104.240	118.134	129.259	109.206	186.770	202.694	40.285
77.000	312.727	272.977	257.698	302.318	312.846	314.422	315.114	300.885	289.498	309.647	231.843	217.257	106.269	147.021	161.393	116.511	105.935	104.526	104.216	118.086	129.331	109.134	186.914	202.646	40.059
78.000	313.228	273.359	257.651	302.175	312.631	314.446	315.019	300.957	289.856	309.981	231.247	217.233	106.436	146.949	161.345	116.463	105.911	104.455	104.120	118.110	129.641	109.182	186.985	202.646	40.375
79.000	313.204	272.786	257.675	302.485	312.965	314.660	315.162	300.862	290.023	310.268	231.366	217.352	106.341	146.615	161.059	116.344	105.935	104.431	104.144	118.086	129.450	109.015	187.009	202.694	40.916
80.000	313.109	273.240	258.104	302.389	313.085	314.660	315.186	300.933	289.713	309.766	231.438	217.328	106.197	146.591	160.987	116.415	105.815	104.526	104.240	118.158	129.522	109.110	186.818	202.527	40.465
81.000	312.727	273.431	258.104	302.437	312.965	314.278	315.019	300.766	289.641	310.101	231.796	216.994	106.412	146.424	160.724	116.296	105.815	104.455	104.097	118.158	129.546	109.229	186.890	202.479	40.059
82.000	313.443	273.479	258.462	302.461	313.133	314.493	315.138	300.599	289.713	309.981	231.414	217.352	106.436	146.329	160.677	116.272	105.696	104.431	104.097	117.991	129.546	109.015	186.914	202.527	40.420
83.000	313.133	273.431	258.391	302.270	312.822	314.374	315.138	300.909	289.832	310.148	231.390	217.567	106.197	146.233	160.605	116.296	105.911	104.383	104.025	117.967	129.474	109.038	186.866	202.527	40.871
84.000	313.276	273.646	258.844	302.580	312.870	314.398	314.923	300.790	289.546	310.029	231.700	217.567	106.030	146.114	160.462	116.320	106.030	104.598	104.216	118.039	129.331	108.967	186.914	202.384	40.600
85.000	313.538	273.741	258.844	302.652	313.133	314.446	314.899	300.885	289.928	310.148	231.557	217.567	106.126	145.899	160.056	116.153	105.959	104.431	104.120	117.872	129.211	108.871	186.890	202.479	40.194
86.000	313.276	274.052	258.988	302.748	313.133	314.469	314.947	300.909	289.760	309.886	231.509	217.519	106.460	145.708	159.913	116.033	105.768	104.502	104.168	117.919	129.402	108.919	186.914	202.288	40.239
87.000	313.395	273.789	259.322	302.485	312.942	314.565	315.210	300.790	289.641	310.029	231.485	217.949	106.341	145.660	159.841	116.081	105.911	104.550	104.240	118.063	129.331	109.062	186.961	202.264	40.781
88.000	313.658	274.004	259.083	302.915	313.204	314.708	315.377	301.220	289.426	309.790	231.509	217.973	106.221	145.756	159.746	116.033	105.839	104.550	104.264	118.063	129.498	108.895	186.914	202.288	40.600
89.000	313.037	274.028	259.202	302.748	313.109	314.326	315.090	300.885	289.617	310.101	231.629	217.734	106.341	145.660	159.602	115.986	105.792	104.479	104.216	117.919	129.474	108.967	187.009	202.169	40.239
