-----------------------------------------------------
BloodHound 307 VOC Analyser V2017.1
RoboScientific Ltd 
Espace North
Wisbech Road
Littleport
Cambridgeshire, UK
CB6 1RA 
-----------------------------------------------------
Date = 13/04/2022
Time = 12:58:13
Data is protected by RoboScientific Limited
-----------------------------------------------------
Name of the experiment = "08b_Day 38"
-----------------------------------------------------
Repeat No. = 3/4
-----------------------------------------------------
Experimental Time (in sec) and Flow Profile :
-----------------------------------------------------
Baseline = 2.00
Absorb = 4.00
Pause = 1.00
Desorb = 5.00
Flush = 20.00
Wait = 5.00
Higher Flow (V) = 4.00
Medium Flow (V) = 3.00
Low Flow (V) = 1.00
-----------------------------------------------------
Total Profile Time = 37 in sec
-----------------------------------------------------
Acquired data point per second = 4
--------------------------------------------------
Total data point stored  = 128
-----------------------------------------------------
Acquired sensor responses from 24 sensors
-----------------------------------------------------

Data Points	 Sen-1	 Sen-2	 Sen-3	 Sen-4	 Sen-5	 Sen-6	 Sen-7	 Sen-8	 Sen-9	 Sen-10	 Sen-11	 Sen-12	 Sen-13	 Sen-14	 Sen-15	 Sen-16	 Sen-17	 Sen-18	 Sen-19	 Sen-20	 Sen-21	 Sen-22	 Sen-23	 Sen-24	Humidity (%r.h.)
0.000	303.798	270.113	244.663	301.482	312.345	314.302	314.756	300.480	289.832	301.793	231.605	222.246	115.556	150.196	174.619	117.132	106.484	104.502	104.335	118.182	129.188	117.036	186.508	197.203	41.322
1.000	303.798	269.563	244.950	301.506	312.631	314.398	314.637	300.575	289.474	301.912	231.796	222.437	115.675	150.077	174.499	117.036	106.388	104.479	104.455	118.445	129.307	117.012	186.317	197.036	41.728
2.000	304.180	269.611	244.926	301.626	312.512	314.446	315.090	300.527	289.832	302.007	232.058	222.199	115.436	150.220	174.404	117.012	106.412	104.335	104.288	118.206	129.283	117.012	186.365	197.131	40.239
3.000	304.395	269.922	244.974	301.530	312.392	314.613	315.281	300.623	290.095	302.007	231.867	222.533	115.580	149.958	174.428	116.988	106.484	104.431	104.359	118.254	129.235	116.893	186.460	197.299	39.292
4.000	303.965	270.041	245.141	301.912	312.464	314.613	315.019	300.480	289.426	302.031	231.557	222.175	115.174	149.647	174.213	116.988	106.484	104.431	104.288	118.397	129.283	116.893	186.460	197.466	39.518
5.000	304.514	270.160	245.380	301.530	312.201	314.756	315.114	300.694	290.023	302.485	231.843	222.103	115.102	149.528	174.165	116.988	106.388	104.574	104.240	118.230	129.140	116.845	186.341	197.609	41.322
6.000	304.299	270.495	245.308	302.031	312.798	314.637	314.995	300.623	289.641	302.079	232.058	221.864	115.293	149.408	174.022	116.917	106.293	104.335	104.335	118.349	129.307	116.869	186.365	197.633	41.683
7.000	304.252	270.590	245.762	302.079	312.655	314.517	314.756	300.336	289.593	302.294	232.011	221.626	115.246	149.313	173.831	116.941	106.365	104.383	104.311	118.230	129.116	116.773	186.293	197.776	40.285
8.000	304.562	270.829	245.523	301.864	312.703	314.493	314.899	300.527	289.832	302.198	231.915	221.817	115.198	149.146	173.735	116.893	106.388	104.359	104.240	118.254	129.307	116.773	186.341	197.657	39.382
9.000	304.275	270.877	245.642	301.817	312.225	314.398	314.780	300.623	289.713	302.413	232.345	221.578	114.959	149.146	173.568	116.845	106.412	104.335	104.264	118.230	129.164	116.750	186.341	197.919	39.518
10.000	303.058	269.062	245.595	301.745	312.321	314.541	315.042	300.241	289.713	301.172	231.629	266.603	116.487	151.199	173.640	116.941	106.388	104.455	104.264	118.421	129.068	117.513	186.651	155.544	41.232
11.000	265.744	259.370	241.870	299.763	311.867	314.159	314.732	298.546	290.262	282.813	229.766	297.519	154.255	158.767	177.006	118.707	106.866	105.075	104.670	120.474	128.567	137.687	188.203	122.837	46.872
12.000	237.143	293.222	232.369	295.991	310.626	313.156	314.469	294.631	290.691	233.467	228.907	311.318	181.065	125.702	187.033	122.360	107.821	105.577	104.837	123.744	128.280	184.550	189.468	108.489	43.894
13.000	264.287	310.459	231.199	290.691	309.647	312.106	313.610	290.238	290.429	235.042	228.310	319.244	155.663	109.277	187.176	127.612	109.110	106.770	105.410	128.471	128.209	183.261	190.495	101.781	32.299
14.000	285.535	318.814	244.353	283.744	307.809	310.554	312.870	285.392	290.190	252.924	227.522	324.067	135.204	100.444	173.162	134.965	110.877	107.988	106.197	133.294	128.543	165.666	191.187	96.720	30.810
15.000	299.907	324.162	256.791	274.649	305.899	309.289	311.581	280.068	289.546	267.081	226.567	326.645	119.280	94.905	159.722	144.395	112.763	109.373	107.105	138.498	129.379	151.509	191.808	94.667	43.488
16.000	309.719	327.600	265.815	264.717	303.464	307.307	310.292	274.195	288.543	276.582	225.899	329.199	108.609	91.778	147.928	154.016	115.102	111.450	108.585	144.538	130.477	140.933	192.357	92.399	54.136
17.000	316.666	330.107	273.932	254.690	300.790	305.374	308.883	267.749	287.087	285.392	225.851	329.963	101.327	89.629	138.713	163.494	117.752	113.216	110.280	150.363	131.527	132.148	192.954	90.131	47.278
18.000	322.634	331.873	280.187	245.714	297.543	302.843	306.639	260.778	286.012	292.315	225.398	331.300	97.221	87.815	132.554	172.757	121.309	115.747	112.237	157.740	132.554	125.845	193.145	90.680	32.659
19.000	325.690	333.091	284.938	237.024	294.392	300.265	304.228	253.879	284.842	297.400	224.872	331.324	93.449	87.027	127.660	181.972	124.914	118.540	114.792	165.237	134.058	120.784	193.527	89.032	28.644
20.000	328.650	333.497	289.068	229.241	289.832	297.018	301.291	246.526	283.625	301.840	225.016	332.255	91.300	85.642	123.362	190.232	129.092	122.097	118.254	172.972	135.299	116.415	193.670	88.603	41.322
21.000	329.390	334.475	292.339	223.177	285.702	293.485	297.304	239.411	282.431	305.493	225.374	332.756	89.796	85.189	120.354	196.296	133.389	125.248	121.954	180.086	136.660	113.192	193.956	88.292	54.317
22.000	331.229	335.239	294.750	223.034	281.214	289.665	292.601	233.133	280.784	308.000	224.514	332.637	87.982	85.093	117.466	195.174	138.021	129.020	126.251	186.842	138.164	109.635	193.932	87.791	48.632
23.000	332.756	334.666	296.875	229.217	275.962	285.415	287.707	227.785	279.352	311.032	224.658	333.377	87.887	84.425	116.129	188.585	142.963	132.721	131.241	192.142	139.835	107.845	194.267	88.054	33.201
24.000	332.900	334.929	298.808	235.663	270.542	281.715	282.670	225.087	277.489	312.870	224.538	333.640	86.597	84.902	114.243	182.497	148.835	137.018	136.970	194.625	141.387	105.362	194.100	87.863	28.238
25.000	332.637	335.430	300.360	240.700	265.720	277.895	276.678	225.732	275.842	314.350	224.825	334.690	85.881	84.329	112.500	177.698	154.398	140.862	142.867	192.739	143.225	103.953	194.052	87.648	39.112
26.000	333.688	336.290	301.029	241.393	261.900	276.200	273.073	225.827	275.126	314.135	224.634	334.499	85.977	84.377	112.381	176.958	158.122	142.223	146.544	192.595	143.703	104.216	194.171	87.242	53.730
27.000	333.998	335.908	301.984	241.154	260.324	276.558	272.094	225.565	274.983	313.610	224.634	333.926	85.833	84.162	112.500	177.173	159.149	142.055	147.475	193.001	143.798	104.574	194.195	85.977	50.482
28.000	334.046	335.550	302.461	240.438	260.014	276.988	271.760	225.016	275.460	313.658	225.087	333.974	85.929	84.043	112.237	177.722	159.531	141.673	147.737	193.216	143.703	104.455	194.410	87.099	34.915
29.000	334.141	335.597	302.031	239.865	259.704	277.227	271.688	225.159	275.556	313.896	225.278	334.046	85.810	83.374	112.548	178.224	159.483	141.697	147.833	193.216	143.416	105.147	194.410	87.194	27.877
30.000	334.261	335.430	303.297	243.756	258.510	275.269	269.802	227.021	274.911	314.589	224.777	334.117	85.332	83.780	112.094	174.619	160.987	143.154	149.576	191.235	144.013	103.595	194.100	86.502	38.525
31.000	334.141	336.147	303.631	248.006	254.308	272.022	265.720	228.525	273.670	315.162	224.801	335.048	85.905	84.258	111.259	169.940	165.141	147.021	154.446	189.492	145.350	103.237	194.123	85.833	53.414
32.000	333.043	336.290	304.395	251.348	250.178	269.778	261.590	227.809	274.290	313.968	224.467	333.711	87.099	84.497	110.710	167.027	169.271	149.337	157.716	189.946	144.825	105.028	193.718	87.027	50.933
33.000	331.611	335.908	304.610	252.279	248.197	269.134	261.232	225.589	275.747	310.172	224.825	331.515	87.648	84.115	110.519	166.335	171.372	149.480	158.242	192.834	143.130	108.895	194.004	87.863	35.637
34.000	329.939	335.645	304.896	251.038	249.080	270.757	263.404	227.713	278.253	305.063	224.705	330.417	90.417	84.019	111.068	167.576	170.727	147.857	155.806	192.094	140.695	114.649	193.741	89.128	27.741
35.000	327.600	334.595	305.087	248.579	250.727	272.977	267.224	233.538	280.187	297.854	225.565	328.388	92.112	84.783	110.399	169.940	168.436	145.469	151.939	185.839	138.618	121.047	192.930	91.133	37.397
36.000	325.332	333.497	305.350	244.472	253.902	275.580	271.378	240.939	282.193	289.164	226.138	326.884	94.285	85.069	110.757	173.831	165.404	143.010	147.952	178.892	136.732	129.856	192.261	92.733	51.970
37.000	322.300	333.544	304.586	239.889	258.056	278.612	275.651	248.149	283.935	279.495	227.021	324.067	97.627	85.619	111.450	178.248	161.345	140.217	143.536	171.563	135.204	139.955	191.664	95.669	50.978
38.000	318.671	333.019	303.870	234.589	261.972	281.452	280.163	254.356	285.272	267.868	227.522	320.748	101.112	86.764	111.784	183.906	157.096	137.472	139.071	164.902	133.915	151.724	191.115	97.699	37.217
39.000	313.395	332.112	303.440	228.525	266.341	283.959	283.888	259.751	286.227	255.359	228.048	317.191	105.887	87.743	112.452	189.516	152.798	134.392	134.631	158.982	132.864	163.637	190.423	101.757	29.185
40.000	307.331	331.754	302.055	222.915	270.542	287.158	288.209	264.550	286.752	242.372	228.215	313.920	111.402	88.054	113.694	194.959	148.358	131.647	130.692	153.825	132.029	176.362	190.113	105.099	36.630
41.000	299.549	331.467	300.909	220.265	274.481	289.307	291.599	268.728	287.206	229.695	228.549	309.575	119.137	88.794	114.649	198.803	144.419	129.498	127.684	150.172	131.456	189.110	189.731	109.420	49.083
42.000	291.241	329.605	299.023	224.801	278.110	291.742	295.036	272.524	288.352	218.236	228.883	306.161	127.827	90.035	115.795	194.625	140.814	127.063	124.222	146.424	131.026	200.689	189.564	113.216	49.940
43.000	281.094	328.865	298.068	230.507	281.691	293.843	297.877	275.269	288.280	225.827	229.170	301.864	139.119	90.918	117.442	188.203	137.233	125.010	121.285	143.297	130.548	193.407	189.277	117.681	39.382
44.000	269.229	327.648	295.681	236.857	284.866	295.609	300.145	277.967	288.304	234.684	229.265	298.594	150.005	92.470	119.041	181.470	133.795	122.933	119.018	140.790	130.381	183.667	189.134	121.691	31.261
45.000	257.555	326.335	293.819	243.446	287.731	297.639	302.366	279.566	288.471	243.518	229.695	294.559	161.059	93.903	121.214	175.550	130.811	120.760	116.869	138.570	130.214	175.025	188.871	125.034	35.998
46.000	247.767	325.356	291.551	249.056	290.405	299.716	303.893	281.858	288.877	251.157	229.552	290.978	171.539	94.499	123.792	169.820	128.257	119.161	115.269	136.875	130.166	168.173	188.704	128.782	46.511
47.000	240.319	324.019	288.280	254.428	292.983	301.387	305.230	283.601	288.710	257.340	229.910	287.660	179.131	95.813	126.633	164.568	126.132	117.299	113.527	135.108	130.166	162.037	188.489	132.100	48.767
48.000	234.708	322.061	285.463	259.011	295.013	303.416	306.639	285.057	288.925	262.569	230.029	284.628	185.648	97.149	129.546	159.674	123.935	115.460	112.405	133.700	130.119	156.881	188.251	135.681	40.871
49.000	227.116	320.772	282.121	263.165	296.493	304.657	307.689	285.988	288.949	266.675	229.957	281.357	192.786	98.701	132.578	155.114	122.145	114.195	111.378	132.267	129.999	152.082	188.155	138.641	33.562
50.000	220.456	319.865	278.612	267.821	298.379	306.305	308.740	287.349	288.949	271.593	230.053	278.110	198.850	100.062	136.206	150.626	120.259	112.715	110.542	131.193	129.880	147.499	188.131	141.459	36.224
51.000	226.472	317.812	274.243	271.879	299.954	306.949	309.026	288.185	289.044	274.911	230.196	275.389	193.550	102.020	140.886	146.973	118.612	111.569	109.850	130.334	129.999	144.013	187.845	144.586	44.706
52.000	233.920	316.021	269.778	275.221	301.602	308.047	309.862	289.355	289.068	277.752	230.554	272.476	185.529	104.001	145.445	143.583	117.609	110.686	109.038	129.116	129.856	141.315	187.749	147.499	47.007
53.000	241.464	313.968	265.457	277.800	302.389	309.098	310.626	290.286	288.973	280.068	230.363	270.065	178.653	106.102	150.244	140.838	116.224	109.611	108.442	128.352	129.737	138.689	187.773	150.077	41.593
54.000	246.693	311.151	261.208	279.710	303.464	309.647	311.079	290.954	289.116	282.193	230.960	267.343	172.399	108.513	154.804	138.355	115.246	109.015	108.036	127.636	129.928	136.755	187.678	152.607	35.547
55.000	251.993	308.429	256.839	281.954	304.275	310.172	311.461	291.599	289.164	283.816	230.793	265.242	167.361	110.972	159.006	136.278	114.171	108.394	107.606	126.991	129.784	135.108	187.678	154.589	36.675
56.000	256.863	306.018	252.542	284.198	305.254	310.626	311.843	292.410	289.450	285.296	231.127	263.022	163.064	113.789	163.589	134.559	113.527	108.131	107.296	126.490	129.856	133.771	187.630	156.547	43.127
57.000	260.301	303.249	248.626	285.511	305.732	311.032	312.154	292.649	289.259	286.514	230.841	260.993	159.674	116.559	167.624	133.413	113.145	107.773	107.009	125.845	129.737	132.602	187.487	158.624	45.789
58.000	263.691	300.002	245.523	286.657	306.543	311.605	312.416	293.318	289.092	287.516	230.888	259.728	156.141	119.710	171.491	131.933	112.285	107.320	106.794	125.463	129.617	131.551	187.463	160.438	41.999
59.000	266.436	296.970	242.205	287.898	306.830	311.700	312.607	293.652	289.402	288.519	230.936	257.746	153.348	123.052	174.810	130.739	111.927	107.057	106.651	125.153	129.617	130.548	187.487	161.870	36.991
60.000	268.704	294.129	238.982	288.519	307.188	312.106	312.536	293.962	289.355	289.450	231.032	256.027	150.530	125.726	178.248	129.713	111.306	106.890	106.460	124.699	129.450	129.641	187.319	163.661	36.991
61.000	271.378	291.050	236.069	289.808	307.761	312.058	313.085	294.607	289.116	289.689	231.079	254.428	148.406	128.257	181.041	128.853	111.092	106.603	106.197	124.317	129.617	128.973	187.296	165.284	41.954
62.000	272.691	288.710	233.968	290.596	308.047	312.154	313.061	294.726	289.140	290.477	230.960	252.780	146.830	131.456	183.643	128.137	110.757	106.532	106.006	123.935	129.856	128.304	187.200	166.717	44.977
63.000	274.792	286.108	231.748	291.527	308.286	312.560	313.228	294.941	289.283	291.264	231.199	251.611	144.872	133.938	185.720	127.373	110.447	106.245	105.959	123.768	129.546	127.731	187.248	168.245	42.631
64.000	276.344	283.291	230.268	292.124	308.668	312.727	313.491	295.371	289.331	291.670	231.223	250.584	143.273	136.827	187.845	126.729	110.065	106.126	105.815	123.410	129.593	127.397	187.176	169.319	37.893
65.000	277.513	280.044	229.050	292.888	309.074	313.013	313.347	295.490	289.140	292.172	231.366	249.438	141.841	139.596	189.683	126.203	109.874	106.126	105.720	123.195	129.713	126.800	187.105	170.465	37.532
66.000	279.208	276.988	227.737	293.341	308.979	312.798	313.276	295.657	289.235	292.721	231.008	248.101	140.647	142.652	190.948	125.535	109.659	106.030	105.577	123.028	129.617	126.275	187.057	171.635	41.458
67.000	280.378	274.028	226.806	293.771	309.432	313.276	313.514	296.087	289.355	293.007	230.817	247.194	139.668	145.756	192.166	125.248	109.373	105.815	105.505	122.790	129.784	126.084	187.081	172.590	44.797
68.000	281.381	270.829	225.923	294.201	309.241	312.989	313.562	296.182	289.331	293.485	231.199	246.478	138.403	148.955	193.264	124.676	109.277	105.744	105.362	122.599	129.641	125.583	187.081	173.879	42.405
69.000	282.407	267.797	225.612	294.368	309.552	313.300	313.873	296.349	289.331	293.747	231.223	245.069	137.257	152.058	194.052	124.389	109.206	105.672	105.338	122.360	129.570	125.201	187.009	174.595	38.796
70.000	283.529	264.335	225.350	294.583	309.552	313.037	313.968	296.708	289.569	294.272	231.533	244.496	136.230	155.210	194.577	123.888	109.038	105.601	105.481	122.097	129.570	124.795	186.937	175.669	37.758
71.000	284.293	261.303	225.493	295.275	309.886	313.419	313.849	297.042	289.378	294.511	231.223	243.136	135.419	158.480	195.078	123.530	109.038	105.601	105.219	121.882	129.641	124.532	187.033	176.385	41.187
72.000	285.081	258.152	225.421	295.538	310.005	313.419	313.753	296.994	289.211	294.559	231.438	242.873	134.917	161.703	195.245	123.219	108.656	105.505	105.362	121.787	129.713	124.294	186.914	177.006	44.706
73.000	285.606	255.311	225.350	295.753	310.124	313.347	313.992	297.472	289.355	295.227	231.485	242.181	134.201	164.473	195.054	123.124	108.680	105.553	105.266	121.500	129.379	123.888	186.985	177.651	42.450
74.000	286.227	252.494	225.684	296.039	310.053	313.586	313.896	297.400	289.068	295.204	231.199	241.488	133.533	167.719	195.054	122.622	108.489	105.386	105.195	121.453	129.665	123.816	186.985	178.534	39.202
75.000	286.824	249.056	226.066	296.373	310.005	313.419	313.896	297.424	289.474	295.633	231.581	240.486	132.363	170.704	194.935	122.384	108.298	105.481	105.219	121.429	129.546	123.386	186.985	179.322	38.254
76.000	287.970	245.953	226.329	296.278	310.339	313.705	314.111	297.495	289.498	296.135	231.652	240.104	131.718	173.664	194.481	122.193	108.203	105.219	105.004	121.166	129.665	123.315	186.723	179.943	40.691
77.000	288.089	242.873	226.878	296.755	310.244	313.491	313.944	297.639	289.474	296.206	231.294	239.149	131.456	176.672	194.123	121.858	108.298	105.362	105.147	121.118	129.617	122.981	186.842	180.539	44.030
78.000	289.402	240.104	226.973	296.851	310.435	313.634	314.135	297.806	289.522	296.111	231.223	238.242	130.906	179.513	193.527	121.930	108.179	105.195	105.052	121.071	129.570	122.861	186.770	181.279	42.450
79.000	289.331	237.382	227.475	297.066	310.865	313.849	314.278	297.782	289.378	296.302	231.485	238.265	130.166	182.497	193.145	121.691	108.131	105.171	105.028	120.808	129.474	122.622	186.842	181.805	39.247
80.000	290.047	234.565	228.071	297.090	310.841	313.705	314.159	298.092	289.498	296.421	231.485	237.525	129.856	184.980	192.667	121.381	108.036	105.171	104.956	120.760	129.522	122.551	186.818	182.163	38.344
81.000	290.548	231.987	228.716	297.400	311.127	313.920	314.374	298.140	289.426	296.588	231.724	237.143	129.092	187.725	192.094	121.190	108.107	105.243	104.837	120.689	129.426	122.288	186.794	182.545	40.420
82.000	290.668	229.384	229.098	297.591	310.745	313.753	314.231	298.212	289.307	296.875	231.605	236.618	128.830	190.328	191.641	121.047	107.940	105.243	105.099	120.832	129.546	122.097	186.627	183.189	43.714
83.000	291.432	227.021	229.337	297.734	311.008	313.896	314.207	298.522	289.546	296.779	231.533	235.902	128.591	192.954	191.187	120.856	107.749	105.052	104.813	120.569	129.546	122.049	186.890	183.476	42.360
84.000	292.052	224.395	229.623	297.949	311.056	313.705	314.780	298.808	289.522	297.185	231.509	235.759	127.922	195.245	190.638	120.832	107.821	105.099	104.765	120.426	129.450	121.787	186.818	183.906	39.518
85.000	291.957	222.366	230.101	298.164	310.888	313.825	314.135	298.164	289.665	297.376	231.318	235.663	127.636	197.394	190.041	120.569	107.582	104.932	104.717	120.522	129.498	121.596	186.818	184.335	38.435
86.000	292.386	220.599	230.960	297.997	311.270	313.968	314.159	298.570	289.641	297.495	231.724	235.186	127.373	198.874	189.659	120.665	107.773	105.028	104.717	120.163	129.426	121.620	186.723	184.765	40.330
87.000	292.530	219.525	231.103	298.235	310.960	313.682	314.422	298.450	289.617	297.758	231.581	234.732	127.111	200.378	189.373	120.474	107.678	104.980	104.908	120.307	129.593	121.476	186.627	185.028	43.353
88.000	292.888	219.000	231.223	298.450	310.888	313.777	314.183	298.617	289.498	297.567	231.700	234.780	126.729	201.357	188.847	120.259	107.534	105.028	104.741	120.140	129.474	121.405	186.866	185.266	42.450
89.000	293.174	219.000	231.724	298.283	311.032	313.610	314.374	298.737	289.665	297.925	231.366	234.398	126.609	201.476	188.561	120.163	107.511	105.028	104.884	120.140	129.331	121.285	186.770	185.338	39.608
