-----------------------------------------------------
BloodHound 307 VOC Analyser V2017.1
RoboScientific Ltd 
Espace North
Wisbech Road
Littleport
Cambridgeshire, UK
CB6 1RA 
-----------------------------------------------------
Date = 13/04/2022
Time = 12:01:55
Data is protected by RoboScientific Limited
-----------------------------------------------------
Name of the experiment = "08b_Day 28"
-----------------------------------------------------
Repeat No. = 3/4
-----------------------------------------------------
Experimental Time (in sec) and Flow Profile :
-----------------------------------------------------
Baseline = 2.00
Absorb = 4.00
Pause = 1.00
Desorb = 5.00
Flush = 20.00
Wait = 5.00
Higher Flow (V) = 4.00
Medium Flow (V) = 3.00
Low Flow (V) = 1.00
-----------------------------------------------------
Total Profile Time = 37 in sec
-----------------------------------------------------
Acquired data point per second = 4
--------------------------------------------------
Total data point stored  = 128
-----------------------------------------------------
Acquired sensor responses from 24 sensors
-----------------------------------------------------

Data Points	 Sen-1	 Sen-2	 Sen-3	 Sen-4	 Sen-5	 Sen-6	 Sen-7	 Sen-8	 Sen-9	 Sen-10	 Sen-11	 Sen-12	 Sen-13	 Sen-14	 Sen-15	 Sen-16	 Sen-17	 Sen-18	 Sen-19	 Sen-20	 Sen-21	 Sen-22	 Sen-23	 Sen-24	Humidity (%r.h.)
0.000	303.846	261.470	243.804	300.790	312.369	314.135	314.637	299.477	289.569	300.790	231.079	224.872	115.699	158.385	175.836	117.967	106.699	104.884	104.502	119.280	129.188	118.134	187.105	194.672	42.089
1.000	303.989	262.067	243.900	300.503	312.464	314.255	314.637	299.501	289.808	300.527	231.342	224.968	115.365	158.098	175.693	117.800	106.579	104.837	104.407	119.209	129.259	118.134	187.200	194.816	40.149
2.000	303.870	262.354	243.971	301.172	312.082	313.920	314.589	299.740	289.808	300.766	231.247	224.801	115.341	157.764	175.383	117.728	106.532	104.765	104.502	119.304	129.450	118.134	187.224	194.911	39.157
3.000	304.347	262.282	243.995	300.790	312.464	314.087	314.971	299.596	289.832	301.005	231.127	224.538	115.436	157.406	175.144	117.752	106.436	104.598	104.431	119.137	129.355	118.086	187.128	195.054	40.465
4.000	303.989	262.640	244.162	300.909	312.416	314.183	314.637	299.596	289.617	301.172	231.318	224.228	115.413	157.143	175.048	117.824	106.484	104.789	104.455	119.161	129.355	118.063	187.224	195.245	42.180
5.000	304.132	262.879	244.210	301.029	312.345	314.231	314.899	299.883	289.641	300.885	231.318	224.252	115.198	157.024	174.858	117.752	106.412	104.693	104.383	119.089	129.379	117.848	187.200	195.365	40.916
6.000	304.323	263.022	244.425	300.862	312.034	314.040	314.995	299.954	289.665	301.124	231.390	224.061	115.078	156.547	174.786	117.752	106.556	104.789	104.335	119.113	129.235	117.943	187.105	195.413	39.292
7.000	304.514	263.333	245.022	300.981	312.392	314.040	314.756	299.668	289.641	301.172	231.223	224.037	115.126	156.332	174.476	117.704	106.460	104.693	104.359	119.161	129.307	117.848	187.200	195.556	39.382
8.000	304.729	263.452	244.854	300.838	312.225	314.064	314.995	299.811	289.593	301.482	230.960	223.774	114.959	156.379	174.356	117.752	106.556	104.789	104.383	119.089	129.307	117.967	187.057	195.532	41.593
9.000	304.347	263.595	245.499	300.671	312.201	314.064	314.708	299.954	289.665	301.148	231.342	223.512	114.887	156.093	174.285	117.657	106.556	104.622	104.335	119.041	129.235	117.704	187.009	195.508	41.774
10.000	301.769	260.277	244.568	300.814	312.369	314.517	314.804	299.334	289.450	300.241	230.674	267.916	116.797	158.600	174.428	117.848	106.556	104.765	104.431	119.423	129.068	118.421	187.463	150.674	39.743
11.000	261.852	266.842	241.082	298.880	311.605	313.347	314.493	297.257	290.166	277.155	229.098	298.808	157.120	154.088	177.770	119.710	107.033	105.362	104.741	121.262	128.543	141.268	189.086	122.575	34.509
12.000	240.271	297.304	232.822	295.299	310.888	312.488	313.658	293.700	290.739	231.414	227.713	312.392	179.752	123.243	187.797	123.721	107.916	106.245	105.099	125.129	128.185	189.325	190.137	109.015	39.518
13.000	265.386	311.843	232.631	289.546	309.647	311.079	313.467	288.829	290.763	237.072	226.902	319.793	153.467	107.224	187.033	129.259	108.967	107.463	105.648	129.999	128.352	180.802	191.139	101.423	51.835
14.000	286.179	320.032	243.112	281.643	308.119	309.910	313.180	283.959	290.119	254.929	226.376	323.565	133.079	98.892	172.590	136.541	110.351	108.656	106.365	134.726	128.830	162.873	192.070	97.818	46.015
15.000	299.381	325.021	254.881	272.619	306.161	307.785	311.652	278.516	289.331	268.179	226.018	327.170	118.564	94.380	160.151	145.541	112.285	110.399	107.248	139.573	129.570	150.674	192.333	94.285	30.719
16.000	310.936	328.483	264.168	263.404	304.275	306.209	310.483	272.858	288.495	278.421	225.541	328.459	108.680	91.563	148.979	155.496	114.314	112.524	108.561	145.756	130.716	139.477	192.930	92.399	32.434
17.000	316.952	330.799	271.808	253.425	302.222	304.108	308.788	266.723	286.919	285.893	225.302	329.677	100.921	89.391	140.766	165.714	116.606	114.505	110.256	152.512	131.861	131.336	192.954	91.635	49.263
18.000	322.300	331.467	278.039	244.281	299.477	301.697	307.045	259.393	285.893	292.673	224.705	330.274	96.791	87.624	133.556	174.595	119.447	117.155	112.237	159.149	132.936	125.034	193.527	90.131	52.106
19.000	325.690	332.995	282.049	235.615	296.159	298.307	304.395	252.709	284.413	297.710	224.586	331.300	93.664	86.764	128.113	183.142	122.551	119.949	114.673	166.788	134.416	120.259	193.861	89.486	35.818
20.000	327.409	334.046	286.633	228.286	292.816	295.275	301.363	245.404	283.434	301.864	224.801	332.088	91.229	86.693	124.508	191.330	126.227	123.458	117.776	174.285	135.490	116.368	193.765	88.555	28.644
21.000	329.868	334.189	289.856	222.270	289.355	291.455	297.376	238.385	281.691	305.159	224.777	332.255	89.534	85.595	120.999	197.012	130.023	126.967	121.835	181.638	137.137	113.169	194.314	88.197	42.992
22.000	330.870	335.359	292.291	224.037	284.628	287.612	292.912	232.106	280.092	308.167	224.180	333.043	88.459	85.857	118.946	194.219	134.535	130.954	126.275	187.630	138.474	109.850	194.314	87.815	54.858
23.000	331.205	334.929	294.105	229.790	279.877	283.673	288.042	226.926	278.540	310.626	224.419	333.926	87.361	84.664	116.368	187.892	138.976	134.869	131.074	192.763	139.931	107.606	193.813	87.003	43.714
24.000	332.327	335.263	296.469	236.093	274.481	279.566	282.240	224.467	276.749	312.846	224.276	334.022	87.051	85.069	115.293	181.996	144.013	138.689	136.779	194.267	141.888	105.648	194.290	87.863	28.554
25.000	332.924	336.099	297.782	241.321	269.468	275.532	276.917	225.827	275.007	314.231	224.299	333.091	86.359	84.926	114.076	177.054	150.077	142.915	142.604	192.452	143.559	104.479	194.696	86.621	34.374
26.000	333.162	335.669	299.334	242.133	265.982	274.744	273.144	226.257	274.625	314.064	224.323	334.356	86.645	85.189	114.052	176.338	153.753	144.371	146.209	192.166	144.132	104.144	194.147	86.072	51.745
27.000	332.351	336.505	298.904	242.085	264.669	274.529	272.381	225.947	275.317	314.302	224.395	334.428	86.669	84.664	113.646	176.576	154.732	144.204	147.308	192.452	144.085	104.526	194.481	87.075	51.610
28.000	333.210	335.526	299.572	240.557	264.073	274.816	272.070	225.851	275.054	313.920	223.726	333.711	86.621	83.804	113.670	177.316	154.995	143.822	147.522	192.930	144.013	105.434	194.935	87.624	34.690
29.000	333.401	335.908	299.381	240.629	264.478	275.198	271.951	225.684	275.341	313.658	224.347	334.141	86.215	83.828	113.718	177.818	155.114	143.750	147.618	193.121	143.822	105.434	194.911	86.717	28.554
30.000	333.234	335.860	300.360	244.544	263.142	273.598	269.802	227.236	274.481	314.851	224.299	333.926	86.001	84.186	113.574	174.380	156.499	145.231	149.313	191.139	144.204	104.240	194.529	87.194	43.127
31.000	332.924	335.048	301.196	248.555	259.083	269.802	265.386	228.955	273.288	314.398	224.013	333.879	86.072	84.687	113.001	169.223	160.342	148.812	153.920	189.182	145.971	104.025	194.672	86.311	55.084
32.000	332.709	335.884	301.745	251.467	254.905	267.367	261.948	227.976	274.243	313.443	224.443	333.210	87.242	84.664	112.428	166.669	164.520	151.605	157.454	190.113	144.968	105.815	194.290	87.385	42.766
33.000	330.918	335.788	302.389	251.682	252.900	267.367	262.019	225.016	275.985	309.313	224.061	332.709	89.247	84.520	112.142	166.669	166.454	151.557	157.358	192.977	142.986	109.683	194.649	88.364	28.328
34.000	328.937	335.144	302.485	250.727	253.664	269.205	264.550	228.071	278.015	303.703	224.467	329.557	90.775	84.735	112.596	167.528	165.809	149.695	154.732	192.452	140.623	115.150	193.980	89.773	35.186
35.000	326.454	333.998	303.034	247.863	255.717	271.449	268.059	233.968	280.092	296.326	225.135	328.173	93.401	84.520	112.548	170.250	163.374	147.236	151.103	186.221	138.761	122.145	193.264	91.563	51.745
36.000	323.541	334.380	302.175	244.759	259.011	273.980	271.999	241.106	282.169	287.994	225.708	325.857	96.027	85.499	112.596	173.926	160.271	144.777	147.117	178.749	136.899	131.575	192.763	93.210	49.805
37.000	319.578	333.926	301.984	239.698	262.401	276.797	276.224	247.313	283.983	277.824	226.209	323.637	99.823	85.929	113.025	178.821	156.666	141.888	142.533	171.706	135.037	141.841	192.214	96.385	33.517
38.000	315.281	332.398	301.482	234.589	266.245	279.781	281.142	253.521	285.224	266.269	227.093	320.056	103.953	86.979	113.598	183.858	152.655	138.641	138.188	164.974	133.819	152.536	191.497	99.035	30.223
39.000	310.005	332.064	300.336	228.692	270.471	283.052	285.010	259.441	286.084	254.117	227.475	316.045	109.420	87.027	114.482	189.277	148.597	135.777	134.225	159.626	132.697	164.640	191.020	102.664	44.526
40.000	302.413	331.825	299.477	223.130	274.267	285.535	288.304	264.311	286.800	241.441	227.666	312.345	116.988	88.889	114.816	195.174	144.992	133.198	130.525	154.756	132.029	177.794	190.638	106.890	52.512
41.000	294.702	329.844	298.594	220.456	277.800	288.185	291.981	268.274	287.755	229.480	228.334	309.122	124.843	88.841	116.057	198.707	141.077	130.429	127.039	150.459	131.456	190.017	190.423	110.901	43.759
42.000	284.341	329.295	297.328	223.846	281.333	290.954	294.989	271.640	287.660	218.068	228.501	304.443	135.347	90.584	117.466	194.887	137.806	128.066	123.935	146.997	131.026	200.951	190.065	115.150	32.208
43.000	273.264	328.268	295.156	229.743	284.413	292.745	297.543	274.481	288.376	225.326	228.692	301.100	145.995	91.324	118.874	188.632	134.440	125.989	121.405	143.894	130.692	193.168	189.683	118.946	33.517
44.000	261.112	326.526	293.628	236.212	287.254	294.607	299.644	276.869	288.471	234.804	229.289	296.922	158.027	92.542	120.760	182.688	131.861	124.079	119.041	141.506	130.334	184.097	189.468	123.195	45.022
45.000	249.462	325.499	291.742	242.133	289.856	296.922	302.127	279.328	288.400	243.112	228.955	293.485	169.749	93.640	122.479	176.385	129.235	121.978	117.108	139.238	130.334	176.194	189.325	126.609	49.940
46.000	241.106	324.425	289.235	248.221	292.148	298.522	304.061	281.333	288.352	250.298	229.671	289.904	179.107	95.120	124.819	170.847	126.681	120.116	115.341	137.448	130.190	168.937	189.349	130.334	41.638
47.000	233.897	323.183	286.179	252.971	294.177	300.289	305.039	282.765	288.782	256.170	229.337	286.609	186.030	96.218	127.230	165.356	124.699	118.445	113.837	135.872	130.190	162.754	188.943	133.652	33.066
48.000	227.689	322.181	283.768	257.579	295.753	301.840	306.090	284.222	288.638	261.232	229.504	283.100	191.235	97.961	130.334	160.581	122.766	116.726	112.715	134.249	130.143	157.669	188.895	136.445	36.810
49.000	221.984	320.724	280.545	262.234	297.495	303.607	307.475	285.917	288.805	265.982	229.862	280.283	197.322	99.489	132.888	156.379	121.214	115.341	111.569	132.936	129.999	153.180	188.513	139.501	46.827
50.000	223.559	318.552	277.561	266.914	298.976	305.063	308.501	286.824	289.116	270.351	229.934	277.203	196.678	100.850	136.994	151.772	119.471	113.694	110.733	131.814	130.023	148.931	188.513	142.485	45.970
51.000	230.865	317.119	273.097	270.518	300.336	306.090	309.146	287.612	288.949	273.980	229.408	274.601	188.704	102.951	140.957	148.024	118.325	112.739	109.802	130.620	130.023	144.992	188.561	145.613	37.487
52.000	238.385	315.090	268.561	273.574	301.745	306.997	309.575	288.925	289.187	276.749	230.172	271.473	180.492	104.861	145.636	144.490	116.869	111.450	109.349	129.689	129.928	142.246	188.394	148.453	35.096
53.000	245.595	313.276	264.550	276.869	302.867	308.167	310.339	289.975	288.734	279.208	230.268	268.752	174.022	106.961	149.719	141.721	115.842	110.853	108.800	129.020	129.808	139.644	188.203	151.247	42.405
54.000	251.109	310.769	260.062	279.113	303.846	308.716	310.841	290.477	288.734	281.285	230.507	266.460	168.340	109.516	154.207	139.668	115.007	109.969	108.131	128.161	129.975	137.997	188.131	153.443	46.646
55.000	255.717	308.167	255.956	281.524	304.705	309.193	311.127	291.073	289.402	283.052	230.459	264.144	163.876	111.664	159.029	137.376	114.028	109.444	107.892	127.612	129.880	136.159	188.083	155.544	41.187
56.000	259.847	305.541	252.303	283.100	305.016	309.719	311.819	291.790	288.973	284.055	230.244	262.354	159.841	114.291	163.565	135.633	113.312	108.895	107.463	126.872	129.808	134.678	188.060	157.573	35.637
57.000	263.213	302.748	248.030	284.508	305.970	310.148	311.676	292.124	289.331	285.726	230.530	260.181	156.021	117.084	167.027	134.201	112.667	108.465	107.248	126.609	129.784	133.342	188.012	159.459	38.796
58.000	266.651	299.811	244.568	285.821	306.376	310.530	312.345	292.792	288.973	286.657	229.981	258.391	153.037	119.662	170.751	132.697	112.070	108.131	106.866	126.108	129.904	132.339	187.869	161.250	45.383
59.000	269.229	297.400	241.512	287.158	306.782	310.626	312.106	293.222	289.474	287.660	230.626	256.552	150.530	122.527	174.428	131.670	111.808	108.036	106.818	125.607	129.665	131.432	187.869	163.064	43.262
60.000	271.378	294.654	238.886	288.161	307.307	311.151	312.798	293.365	289.259	288.829	230.554	255.287	148.382	125.368	178.128	130.525	111.235	107.534	106.508	125.177	129.808	130.525	187.725	164.664	37.938
61.000	273.670	292.410	236.332	289.259	307.713	311.390	312.727	293.867	289.235	289.402	230.459	253.353	146.018	127.851	180.802	129.737	110.901	107.367	106.293	124.867	129.784	129.737	187.701	166.120	37.262
62.000	275.245	289.641	233.825	289.999	308.429	311.915	312.989	294.392	289.092	289.378	230.745	252.016	144.395	130.644	183.213	128.686	110.638	107.176	106.269	124.556	129.737	129.068	187.797	167.528	42.902
63.000	276.678	285.941	231.843	290.668	308.453	311.939	313.085	294.631	289.187	290.453	230.721	250.656	142.795	133.652	185.672	128.089	110.280	107.009	105.959	124.222	129.593	128.495	187.701	168.722	44.436
64.000	278.707	283.195	230.411	291.646	308.692	312.273	313.156	294.774	289.068	291.169	230.721	249.629	141.268	136.636	187.630	127.206	110.065	106.770	105.911	124.055	129.689	127.994	187.630	170.011	40.375
65.000	279.638	280.521	229.098	291.766	308.597	312.058	313.371	295.204	289.498	292.196	230.650	248.698	140.002	139.596	189.205	126.609	109.683	106.723	106.078	123.935	129.713	127.516	187.892	171.133	37.126
66.000	280.593	277.466	228.406	292.386	308.931	312.273	313.204	295.204	289.211	292.052	230.984	247.385	138.809	142.509	190.686	126.299	109.635	106.484	105.768	123.506	129.689	127.015	187.582	172.088	39.698
67.000	282.145	274.338	227.331	292.864	309.647	312.512	313.658	295.395	289.307	292.267	230.626	246.740	137.710	145.636	191.832	125.654	109.468	106.508	105.696	123.291	129.641	126.657	187.606	173.162	44.526
68.000	282.885	271.211	227.021	293.437	309.719	313.013	313.276	296.015	289.474	292.458	230.721	245.929	136.875	148.453	192.882	125.177	109.325	106.388	105.648	123.243	129.617	126.323	187.678	173.974	42.766
69.000	283.840	268.465	226.591	293.723	309.790	312.607	313.610	295.800	289.259	292.864	230.721	245.236	135.992	151.366	193.527	124.867	109.062	106.293	105.720	123.004	129.713	126.036	187.725	174.738	38.570
70.000	284.508	265.696	226.353	294.129	309.910	312.846	313.801	295.896	289.546	293.127	230.888	244.234	135.156	153.992	194.076	124.604	108.919	106.006	105.529	122.933	129.761	125.893	187.630	175.669	38.435
71.000	285.487	262.998	226.305	294.320	310.029	312.894	313.682	296.015	289.426	293.723	231.079	243.112	134.297	157.000	194.410	124.246	108.824	106.150	105.505	122.766	129.546	125.416	187.439	176.242	42.766
72.000	286.323	260.133	226.567	294.607	310.077	312.942	313.777	296.397	289.259	293.914	231.199	242.610	133.365	159.650	194.338	123.959	108.752	105.983	105.410	122.479	129.570	125.105	187.463	177.078	44.210
73.000	286.728	257.842	226.711	295.347	310.124	312.822	313.896	296.564	289.020	293.986	231.032	241.942	132.816	162.300	194.649	123.625	108.609	105.887	105.362	122.360	129.761	124.843	187.510	177.627	39.969
74.000	287.612	255.048	226.567	295.227	310.315	313.013	313.729	296.445	289.522	294.320	230.888	241.321	132.554	165.022	194.267	123.482	108.609	105.768	105.243	122.240	129.498	124.604	187.439	178.439	37.848
75.000	288.328	252.327	227.164	295.944	310.459	313.252	313.801	296.588	289.402	294.631	230.841	240.605	131.479	167.433	194.290	123.076	108.585	105.983	105.266	122.240	129.593	124.389	187.534	178.916	40.420
76.000	288.758	250.035	227.594	295.681	310.101	313.013	313.920	296.779	289.498	294.845	230.960	240.295	131.026	169.772	193.861	122.837	108.394	105.959	105.195	121.858	129.498	124.198	187.391	179.513	44.210
77.000	289.522	247.863	227.522	295.920	310.339	313.180	313.873	296.922	289.402	294.965	231.079	239.626	130.501	172.184	193.479	122.742	108.298	105.696	105.147	121.930	129.474	123.935	187.367	180.086	41.954
78.000	289.808	245.618	228.406	296.135	310.435	313.133	314.016	296.755	289.259	295.180	230.984	239.125	129.784	174.356	193.097	122.408	108.203	105.696	105.171	121.739	129.570	123.721	187.391	180.754	38.841
79.000	290.071	243.494	228.358	295.991	310.483	313.228	314.111	297.113	289.546	295.442	230.936	238.576	129.474	176.147	192.763	122.217	107.964	105.696	105.147	121.691	129.522	123.577	187.343	181.279	38.976
80.000	290.787	241.393	228.788	296.970	310.530	313.037	314.016	297.066	289.164	295.418	230.888	238.074	128.997	178.152	192.404	122.097	108.107	105.529	104.980	121.548	129.546	123.386	187.343	181.661	42.856
81.000	291.050	240.319	229.456	296.827	310.888	313.133	313.873	297.400	289.450	296.063	231.103	237.931	128.734	179.680	191.736	121.858	107.940	105.505	104.932	121.405	129.450	123.243	187.415	182.020	43.443
82.000	291.479	238.409	229.504	296.851	310.578	313.300	314.016	297.209	289.426	295.872	230.769	237.406	128.113	181.279	191.259	121.739	107.892	105.529	105.195	121.357	129.593	123.004	187.487	182.497	39.608
83.000	292.005	236.594	229.981	297.376	310.888	313.228	314.111	297.639	289.426	295.824	230.865	236.499	127.684	183.046	190.853	121.596	107.869	105.505	104.956	121.309	129.570	122.837	187.487	182.998	38.525
84.000	292.482	235.257	230.530	297.185	311.199	313.324	314.446	297.663	289.331	295.991	231.270	236.141	127.445	184.479	190.447	121.309	107.845	105.601	105.075	121.238	129.426	122.694	187.272	183.404	40.826
85.000	292.864	233.252	230.865	297.304	311.175	313.347	314.135	297.782	289.426	296.373	231.008	235.950	127.039	186.317	189.898	121.381	107.797	105.386	104.908	121.142	129.474	122.622	187.367	183.858	43.849
86.000	293.318	231.581	230.960	297.639	310.936	313.419	314.350	297.734	289.283	296.421	230.817	235.257	126.514	188.298	189.564	121.071	107.701	105.529	104.884	120.999	129.498	122.479	187.367	184.264	41.232
87.000	293.700	229.934	231.509	297.519	311.079	313.228	314.326	297.830	289.187	296.612	231.151	234.732	126.132	190.041	189.038	121.023	107.630	105.266	104.789	120.999	129.570	122.479	187.296	184.622	38.976
88.000	293.843	227.666	232.082	297.591	311.127	313.682	314.302	297.639	289.498	296.851	230.698	234.899	126.108	191.712	188.609	120.927	107.606	105.314	104.837	120.808	129.593	122.097	187.391	184.884	39.202
89.000	293.986	225.994	232.321	297.997	310.984	313.586	314.255	297.710	289.522	297.042	230.936	234.732	125.511	193.479	188.131	120.689	107.606	105.410	104.908	120.999	129.665	122.002	187.343	185.505	42.902
