-----------------------------------------------------
BloodHound 307 VOC Analyser V2017.1
RoboScientific Ltd 
Espace North
Wisbech Road
Littleport
Cambridgeshire, UK
CB6 1RA 
-----------------------------------------------------
Date = 06/04/2022
Time = 12:26:37
Data is protected by RoboScientific Limited
-----------------------------------------------------
Name of the experiment = "32b_Day 39"
-----------------------------------------------------
Repeat No. = 3/4
-----------------------------------------------------
Experimental Time (in sec) and Flow Profile :
-----------------------------------------------------
Baseline = 2.00
Absorb = 4.00
Pause = 1.00
Desorb = 5.00
Flush = 20.00
Wait = 5.00
Higher Flow (V) = 4.00
Medium Flow (V) = 3.00
Low Flow (V) = 1.00
-----------------------------------------------------
Total Profile Time = 37 in sec
-----------------------------------------------------
Acquired data point per second = 4
--------------------------------------------------
Total data point stored  = 128
-----------------------------------------------------
Acquired sensor responses from 24 sensors
-----------------------------------------------------

Data Points	 Sen-1	 Sen-2	 Sen-3	 Sen-4	 Sen-5	 Sen-6	 Sen-7	 Sen-8	 Sen-9	 Sen-10	 Sen-11	 Sen-12	 Sen-13	 Sen-14	 Sen-15	 Sen-16	 Sen-17	 Sen-18	 Sen-19	 Sen-20	 Sen-21	 Sen-22	 Sen-23	 Sen-24	Humidity (%r.h.)
0.000	312.918	307.355	292.434	305.063	314.589	315.448	315.902	297.591	286.347	311.199	229.552	276.105	106.508	111.975	126.729	113.479	104.025	103.595	103.571	121.739	132.864	107.582	188.728	143.273	46.285
1.000	313.228	307.737	292.697	305.421	314.899	315.353	315.806	297.281	286.108	311.294	229.575	276.105	106.508	111.808	126.753	113.431	104.049	103.619	103.667	121.667	132.721	107.678	188.728	143.416	45.834
2.000	313.276	307.451	293.055	305.541	314.804	315.544	315.902	297.376	286.156	311.199	229.504	276.081	106.412	111.784	126.753	113.431	104.168	103.595	103.715	121.667	132.745	107.654	188.728	143.034	38.254
3.000	312.965	307.498	292.506	305.111	314.708	315.591	315.973	297.161	286.347	311.461	229.695	276.439	106.436	111.808	126.776	113.383	103.977	103.595	103.476	121.572	132.840	107.678	188.656	142.867	34.600
4.000	313.252	307.689	292.721	305.159	314.732	315.615	316.093	297.376	286.418	311.652	229.456	276.367	106.197	111.808	126.657	113.336	104.001	103.380	103.452	121.524	132.816	107.678	188.585	142.676	40.330
5.000	312.918	307.856	292.936	305.541	314.756	315.496	315.615	297.018	286.203	311.247	229.743	276.415	106.556	111.808	126.514	113.407	104.168	103.500	103.548	121.429	132.769	107.630	188.489	142.533	47.323
6.000	313.180	307.856	292.434	305.374	314.899	315.496	315.687	297.209	286.466	311.366	229.575	276.678	106.436	111.927	126.538	113.431	104.025	103.500	103.452	121.620	132.721	107.582	188.632	142.676	44.436
7.000	313.324	307.546	292.936	305.135	314.804	315.591	315.759	297.161	286.633	311.270	229.408	276.988	106.388	111.903	126.562	113.360	104.097	103.500	103.667	121.667	132.792	107.511	188.585	142.390	36.540
8.000	312.965	307.761	292.697	305.541	314.613	315.305	315.544	297.185	286.442	311.533	229.647	277.084	106.293	111.855	126.418	113.336	104.049	103.452	103.548	121.500	132.864	107.487	188.656	142.437	35.096
9.000	313.300	307.594	293.007	305.063	314.493	315.353	315.615	297.567	286.490	311.366	229.719	277.131	106.317	111.664	126.347	113.360	104.120	103.619	103.500	121.572	132.649	107.606	188.680	142.246	43.172
10.000	311.605	305.421	292.339	305.063	314.589	315.424	315.615	297.376	286.633	310.912	229.098	272.834	107.343	113.622	126.585	113.646	104.120	103.524	103.619	121.715	132.339	107.845	189.062	146.281	47.549
11.000	295.204	254.953	289.617	303.989	314.589	315.233	315.878	295.872	287.445	304.729	226.735	280.784	124.771	167.123	129.450	114.935	104.240	103.643	103.524	123.100	131.360	114.744	191.115	139.596	40.285
12.000	262.330	278.850	281.882	300.312	314.040	314.613	315.281	291.384	288.137	285.439	225.063	301.053	158.743	137.997	138.021	118.659	104.670	104.192	103.691	127.373	130.835	134.392	192.954	118.707	48.045
13.000	236.141	301.435	270.781	294.416	313.109	314.255	315.663	286.275	288.185	268.083	223.583	312.178	181.972	115.556	147.379	123.673	105.099	104.813	103.953	132.100	130.692	149.790	194.601	107.224	47.143
14.000	268.680	313.514	260.324	286.227	312.631	313.037	314.684	281.142	287.946	249.438	222.437	319.077	149.623	104.884	158.433	131.981	105.959	105.672	104.288	137.424	131.050	169.319	195.771	100.253	34.464
15.000	291.885	320.032	250.465	277.298	312.058	311.963	314.278	275.771	287.349	227.045	221.721	322.968	128.209	98.462	169.725	141.363	106.723	106.579	104.646	143.058	131.838	191.641	196.797	96.767	30.043
16.000	306.854	324.807	241.154	267.319	310.745	310.339	313.514	269.110	286.418	241.464	220.742	326.645	112.834	94.165	179.775	151.509	107.892	108.465	105.243	149.862	132.578	177.173	197.490	94.165	42.225
17.000	314.637	327.791	237.382	257.651	309.695	308.191	312.703	262.139	284.938	261.327	220.599	328.483	103.404	91.754	184.240	162.085	109.158	110.423	106.174	156.833	133.652	156.594	197.776	92.494	54.181
18.000	320.987	329.199	241.512	246.812	307.880	305.612	311.199	254.666	284.389	276.702	219.931	329.199	96.911	89.844	174.929	171.491	110.614	112.834	107.343	164.305	134.559	141.172	198.659	90.871	45.789
19.000	325.953	331.085	248.698	237.048	306.233	302.557	309.862	246.717	282.670	287.612	219.358	330.465	93.545	88.579	164.664	181.375	112.333	115.914	109.134	172.255	135.920	131.265	198.683	90.035	31.125
20.000	328.030	332.446	256.743	228.859	304.562	299.835	308.334	239.578	281.452	296.015	219.501	330.894	90.465	87.314	155.974	190.781	114.291	119.328	111.115	180.110	137.376	123.004	199.041	89.414	30.674
21.000	330.154	332.900	262.903	221.124	302.246	295.395	305.421	232.584	280.163	301.506	219.405	332.327	89.128	86.621	147.546	198.206	116.559	123.243	113.741	187.272	138.665	116.702	199.065	88.459	45.834
22.000	331.539	333.329	267.988	223.440	299.835	290.978	301.936	226.830	278.540	305.517	219.214	331.754	88.078	86.144	141.817	194.625	119.137	127.516	117.179	193.025	140.289	112.524	199.495	88.292	54.678
23.000	332.279	333.783	272.810	230.674	296.182	285.941	298.092	223.774	276.630	309.241	219.381	332.303	86.120	85.571	136.899	187.319	122.193	132.100	120.784	195.795	141.912	108.919	199.471	87.887	42.586
24.000	332.947	334.738	276.582	237.812	292.840	281.190	293.700	226.305	275.341	311.628	219.167	332.685	86.001	85.833	133.294	180.372	125.965	137.328	125.153	192.023	143.655	106.054	199.280	87.910	28.779
25.000	333.879	334.237	280.259	242.849	289.617	276.487	289.617	229.289	273.431	313.920	219.453	333.234	85.666	85.284	129.784	175.263	129.426	142.055	129.713	189.396	145.302	104.407	199.495	88.292	34.374
26.000	333.473	334.977	281.548	243.327	287.206	274.863	286.179	229.170	273.144	313.896	218.904	333.329	85.141	85.356	128.997	175.072	132.029	143.846	132.792	189.564	145.875	104.335	199.567	87.146	50.301
27.000	333.974	335.048	282.455	242.706	287.063	275.245	285.702	228.525	272.906	313.491	219.262	333.592	85.929	84.616	128.830	176.242	132.243	143.607	133.676	190.113	145.756	104.407	199.662	86.860	52.873
28.000	334.452	334.690	282.598	241.751	286.824	275.341	285.415	227.737	273.598	313.705	219.000	333.353	84.878	84.329	128.328	177.006	132.434	143.058	133.819	190.709	145.350	105.075	199.447	87.194	37.623
29.000	333.807	334.452	282.670	240.223	286.681	276.057	285.129	227.021	273.908	313.538	219.381	333.329	85.022	85.093	127.803	178.128	132.363	142.843	133.819	191.569	144.825	105.434	199.471	86.693	28.057
30.000	334.284	334.714	283.792	243.661	286.203	274.481	283.935	229.384	273.407	315.066	219.238	333.592	84.807	84.974	127.827	175.311	133.103	144.156	135.323	189.325	145.445	104.025	199.853	87.910	38.841
31.000	334.189	335.836	284.795	247.934	283.529	270.614	280.307	230.363	272.572	314.517	219.191	333.592	84.974	85.165	126.657	170.059	136.302	147.976	138.737	188.036	146.400	103.476	199.280	87.075	53.911
32.000	332.279	335.359	285.845	249.987	281.261	269.325	278.826	227.809	274.171	311.628	219.381	332.303	87.863	85.332	125.559	168.818	138.403	149.695	140.527	190.518	144.538	107.272	199.662	88.125	48.812
33.000	330.727	334.356	286.609	248.626	281.643	271.258	280.712	225.589	277.346	304.490	219.501	330.226	89.080	86.072	125.368	169.820	137.758	147.284	138.021	194.028	141.602	114.649	199.065	89.629	32.750
34.000	328.077	333.783	285.750	244.186	283.864	274.601	284.628	233.920	280.139	293.867	220.098	326.955	92.112	86.383	125.845	174.117	135.371	143.750	134.249	185.338	138.761	125.248	198.086	92.303	29.682
35.000	323.326	332.518	286.156	237.573	286.394	278.635	288.614	243.303	282.193	279.232	221.387	323.732	95.454	87.767	126.132	180.229	132.434	139.835	130.119	176.338	136.517	139.167	196.821	96.362	43.262
36.000	317.692	331.491	284.938	229.480	289.617	282.742	292.697	251.062	283.577	260.969	222.366	319.554	101.709	87.863	127.922	188.346	129.068	135.657	126.347	168.077	135.180	157.669	195.627	99.656	53.505
37.000	309.480	330.274	282.909	221.745	292.816	286.919	296.564	257.961	285.105	241.775	223.130	314.899	109.635	90.155	129.761	197.203	126.442	132.196	122.694	161.488	134.082	178.606	195.102	105.410	44.300
38.000	297.591	328.579	280.521	223.774	295.514	290.286	299.405	262.688	285.630	220.718	223.798	308.573	122.312	91.587	131.981	194.720	123.124	128.233	119.399	155.448	133.198	198.110	194.601	111.450	32.163
39.000	279.734	326.120	278.086	233.753	298.331	294.082	302.628	267.319	286.203	237.621	224.347	301.482	139.191	93.831	135.156	184.693	120.522	124.652	116.320	151.199	132.697	180.897	193.932	117.657	33.833
40.000	256.576	323.016	274.243	243.255	300.790	297.424	305.063	271.139	286.251	252.757	225.207	294.750	162.587	95.980	138.618	174.905	118.516	121.453	114.123	147.857	132.339	166.478	193.455	124.652	45.654
41.000	234.804	320.271	269.993	252.685	302.437	300.527	306.949	274.243	286.585	264.478	225.111	288.233	184.025	99.680	143.392	166.120	116.272	118.182	111.855	144.538	132.387	154.995	193.168	131.551	49.399
42.000	221.363	316.594	265.099	260.420	304.514	303.440	308.668	276.344	286.728	273.168	225.827	281.643	198.635	103.380	148.692	158.051	114.482	115.508	110.375	142.008	132.196	146.162	192.763	137.615	41.322
43.000	233.085	311.127	259.489	266.890	305.684	305.230	309.695	277.991	286.800	279.089	226.114	275.341	185.935	108.537	154.899	151.438	112.858	113.097	109.158	140.122	132.315	139.501	192.046	144.347	34.329
44.000	248.030	304.323	253.664	272.261	307.021	307.379	311.223	279.972	286.752	284.055	226.544	268.895	170.847	114.792	161.083	145.995	111.760	111.211	108.083	138.260	132.291	134.655	191.784	150.101	37.487
45.000	260.468	296.373	247.027	277.060	308.143	309.098	311.963	281.500	286.728	287.898	226.472	262.473	159.483	122.694	168.507	141.841	110.566	109.683	107.296	136.875	132.458	131.026	191.593	156.284	44.932
46.000	270.089	288.376	241.106	280.951	309.002	310.459	312.512	282.837	286.728	290.835	226.687	256.600	149.313	131.479	175.645	137.543	109.492	108.394	106.556	135.490	132.267	128.018	191.593	162.467	44.706
47.000	277.680	278.755	235.639	284.150	310.029	311.509	313.109	284.079	286.394	293.270	226.615	250.608	141.936	141.124	182.020	134.416	108.752	107.272	106.078	134.297	132.315	125.941	191.378	168.841	40.059
48.000	283.243	268.513	231.796	286.728	310.363	311.891	313.491	285.129	286.776	295.036	227.069	244.759	136.135	151.748	187.510	131.623	108.322	106.866	105.601	133.342	132.267	123.792	191.211	174.165	37.758
49.000	287.946	257.078	230.125	289.235	311.079	312.822	313.849	286.179	286.657	296.708	227.284	240.032	131.384	161.655	189.969	129.331	107.701	106.221	105.314	132.291	132.411	122.455	190.948	179.107	39.608
50.000	291.145	244.544	232.345	291.121	311.294	312.918	314.040	287.134	286.705	298.594	227.451	234.279	128.233	174.261	188.274	127.397	107.105	105.434	105.004	131.217	132.411	120.736	191.020	184.120	43.262
51.000	294.225	231.199	236.260	293.509	312.034	313.491	314.278	288.328	286.657	299.572	227.570	229.528	125.750	187.630	183.738	125.654	106.651	105.171	104.741	130.143	132.649	119.662	190.853	189.301	42.360
52.000	295.896	224.753	240.677	294.368	312.225	314.040	314.374	289.140	286.442	300.408	227.403	225.660	123.315	195.102	179.202	124.031	106.460	105.052	104.479	129.355	132.530	118.373	190.590	193.503	39.788
53.000	298.331	237.764	244.592	295.681	312.679	314.231	314.828	290.119	286.323	301.339	227.904	222.461	121.548	181.661	174.690	122.933	106.006	104.741	104.383	128.639	132.721	117.657	190.566	196.654	39.337
54.000	299.405	249.844	248.650	296.660	312.870	314.350	314.947	290.739	286.800	302.533	227.857	219.907	119.710	169.581	170.895	121.906	105.744	104.311	104.407	127.875	132.769	116.750	190.399	198.970	40.646
55.000	300.718	259.990	251.969	297.806	313.180	314.446	314.947	291.288	286.299	302.580	227.761	218.880	118.755	159.746	166.955	121.333	105.696	104.335	104.192	127.302	132.602	116.081	190.184	200.617	41.007
56.000	301.411	267.367	255.144	298.379	313.156	314.493	314.995	291.957	286.514	303.321	228.167	219.167	117.848	152.154	164.067	120.402	105.577	104.288	104.097	126.705	132.482	115.580	190.160	200.856	40.465
57.000	302.628	272.786	257.675	299.238	313.562	314.541	315.019	292.840	286.466	304.037	228.477	220.193	116.726	146.209	160.844	119.853	105.577	104.144	104.049	125.798	132.602	115.150	190.208	199.662	40.781
58.000	303.941	277.657	260.444	299.262	313.705	314.875	315.233	293.628	286.657	304.252	228.406	221.769	115.795	141.554	158.719	119.232	105.314	104.049	104.025	125.463	132.530	114.601	189.993	198.158	41.052
59.000	304.466	281.190	262.974	299.859	313.491	314.875	315.568	293.771	286.418	304.729	228.621	223.535	115.174	138.451	156.570	118.946	105.195	103.929	104.025	124.914	132.649	114.147	189.922	196.463	40.194
60.000	304.896	284.079	264.884	300.121	313.658	314.756	315.186	294.105	286.442	305.039	228.262	224.992	114.649	135.204	154.040	118.516	105.195	104.025	103.882	124.747	132.625	113.861	189.850	194.649	39.337
61.000	305.636	286.466	266.341	300.694	313.849	314.947	315.377	294.392	286.418	305.254	228.453	226.902	114.004	133.151	152.464	117.919	105.099	104.049	104.073	124.676	132.769	113.431	189.874	192.834	40.465
62.000	306.090	288.447	268.107	300.909	313.968	314.971	315.448	294.368	286.227	305.612	228.453	228.597	113.718	131.097	150.936	117.728	104.932	103.834	103.953	124.508	132.840	113.360	189.755	190.996	42.270
63.000	306.209	290.047	269.802	301.148	313.682	315.090	315.210	294.678	286.347	306.161	228.644	230.196	113.216	129.426	149.217	117.490	104.980	103.977	103.906	124.198	132.530	113.001	189.778	189.301	41.503
64.000	306.281	291.575	271.163	301.673	314.064	314.923	315.377	294.607	286.370	306.329	228.286	231.939	112.954	127.946	147.976	117.132	104.908	103.882	103.834	124.198	132.697	112.739	189.659	187.678	39.427
65.000	307.093	292.864	272.404	301.769	314.350	315.233	315.520	294.869	286.251	306.376	228.430	233.586	112.476	126.729	146.735	116.988	104.670	103.834	103.810	124.103	132.721	112.381	189.540	186.197	38.931
66.000	307.451	294.272	273.622	302.007	314.326	315.400	315.329	294.965	286.299	306.591	228.621	234.780	112.142	125.463	145.493	116.750	104.717	103.834	103.786	123.792	132.769	112.333	189.540	184.741	41.503
67.000	307.689	294.989	274.481	302.198	314.231	315.210	315.544	295.180	286.514	307.021	228.668	236.093	111.808	124.580	144.443	116.654	104.717	103.786	103.786	123.697	132.792	112.023	189.587	183.333	43.488
68.000	307.785	295.586	275.174	301.960	314.350	315.281	315.472	295.442	286.466	306.949	228.453	237.812	111.569	123.553	143.536	116.463	104.574	103.739	103.739	123.649	132.912	111.927	189.635	181.924	41.413
69.000	308.429	296.588	276.630	302.246	314.183	315.305	315.878	295.538	286.394	307.260	228.788	238.695	111.283	122.909	142.724	116.177	104.598	103.882	103.882	123.649	132.816	111.664	189.444	180.778	39.247
70.000	308.286	297.686	277.227	302.389	314.278	315.233	315.472	295.275	286.156	307.594	228.692	239.769	110.781	122.312	142.032	116.081	104.622	103.691	103.786	123.434	132.912	111.569	189.444	179.561	38.931
71.000	308.573	297.686	278.062	302.915	314.493	315.162	315.520	295.299	286.084	307.546	228.835	241.178	110.829	121.572	141.172	115.938	104.502	103.786	103.715	123.434	132.912	111.354	189.420	178.367	42.541
72.000	309.361	298.474	278.397	303.058	314.302	315.257	315.830	295.490	286.179	307.904	228.883	242.157	110.901	121.095	140.432	115.938	104.598	103.739	103.715	123.386	132.816	111.163	189.420	177.245	44.075
73.000	309.289	299.047	279.423	303.130	314.875	315.639	315.400	295.705	286.203	307.928	228.764	243.350	110.495	120.522	139.764	115.866	104.550	103.643	103.643	123.124	132.888	111.068	189.516	175.932	40.510
74.000	309.313	299.381	279.877	303.297	314.231	315.353	315.902	295.800	286.012	307.856	228.812	244.568	110.447	120.068	138.952	115.747	104.526	103.739	103.786	123.195	132.697	111.068	189.396	174.881	38.209
75.000	309.623	299.644	280.641	303.368	314.541	315.233	315.448	295.896	286.227	307.904	228.621	245.380	109.969	119.471	138.451	115.532	104.574	103.786	103.739	123.004	132.769	110.901	189.420	173.950	39.202
76.000	309.504	300.289	280.832	303.177	314.398	315.448	315.878	295.920	286.227	308.334	228.979	246.502	109.946	119.018	137.973	115.627	104.526	103.524	103.643	122.981	132.745	110.733	189.444	172.757	43.849
77.000	309.695	300.909	282.002	303.535	314.637	315.114	315.472	296.063	285.988	308.095	228.788	247.337	109.778	118.827	137.639	115.532	104.383	103.619	103.571	122.981	132.864	110.614	189.349	171.802	43.849
78.000	309.981	301.053	281.834	303.273	314.637	315.711	315.973	296.302	286.156	308.095	228.955	248.340	109.635	118.492	137.042	115.269	104.431	103.786	103.786	122.837	132.816	110.447	189.325	171.038	39.743
79.000	309.575	301.530	282.575	303.368	314.446	315.281	315.472	296.182	286.203	308.262	228.955	249.725	109.564	118.158	136.779	115.198	104.431	103.619	103.691	122.861	132.888	110.447	189.325	170.059	37.487
80.000	310.554	301.411	283.028	303.679	314.637	315.377	315.639	296.230	286.466	308.597	228.931	250.178	109.301	118.039	136.326	115.150	104.479	103.667	103.715	122.670	132.888	110.375	189.229	169.032	39.924
81.000	310.077	302.007	283.267	303.512	314.278	315.448	315.591	296.182	286.203	308.525	228.907	251.300	109.468	117.633	135.801	115.126	104.407	103.571	103.643	122.670	132.792	110.375	189.182	168.245	44.255
82.000	310.172	301.960	283.768	303.607	314.517	315.424	315.711	296.469	286.084	308.788	229.002	252.255	109.277	117.275	135.586	115.007	104.264	103.500	103.643	122.694	132.864	110.065	189.253	167.194	43.578
83.000	310.268	302.819	284.270	303.703	314.446	315.687	315.687	296.159	286.012	308.979	228.859	252.685	109.158	117.036	135.204	114.959	104.288	103.643	103.595	122.790	132.912	110.041	189.158	166.430	38.886
84.000	310.721	303.297	284.628	303.726	314.517	315.496	315.806	296.349	286.227	308.740	229.217	253.592	109.015	116.821	134.631	114.935	104.383	103.643	103.548	122.455	132.769	109.969	189.158	165.738	37.397
85.000	310.411	302.867	284.699	303.703	314.255	315.281	315.687	296.421	286.323	309.193	229.408	254.452	109.038	116.559	134.344	114.840	104.288	103.643	103.643	122.622	132.936	109.898	189.182	164.974	41.548
86.000	310.674	303.153	285.153	303.846	314.756	315.520	315.663	296.517	286.251	309.002	229.384	255.072	108.728	116.368	134.177	114.887	104.335	103.571	103.500	122.479	132.792	109.826	189.110	164.520	44.932
87.000	310.745	303.344	285.368	303.822	314.517	315.448	315.663	296.493	286.132	309.002	229.265	255.359	108.776	116.248	133.915	114.649	104.335	103.667	103.834	122.575	132.769	109.755	189.086	163.661	42.631
88.000	310.315	303.726	286.012	303.989	314.732	315.424	315.520	296.302	286.347	309.217	229.074	256.266	108.585	116.105	133.724	114.720	104.407	103.691	103.691	122.479	132.769	109.683	189.182	163.088	37.713
89.000	310.578	303.726	285.702	304.084	314.541	315.305	315.735	296.493	286.132	309.265	229.384	257.269	108.680	115.818	133.437	114.577	104.288	103.548	103.595	122.360	132.769	109.540	189.134	162.157	37.623
