-----------------------------------------------------
BloodHound 307 VOC Analyser V2017.1
RoboScientific Ltd 
Espace North
Wisbech Road
Littleport
Cambridgeshire, UK
CB6 1RA 
-----------------------------------------------------
Date = 06/04/2022
Time = 11:48:45
Data is protected by RoboScientific Limited
-----------------------------------------------------
Name of the experiment = "32b_Day 26"
-----------------------------------------------------
Repeat No. = 3/4
-----------------------------------------------------
Experimental Time (in sec) and Flow Profile :
-----------------------------------------------------
Baseline = 2.00
Absorb = 4.00
Pause = 1.00
Desorb = 5.00
Flush = 20.00
Wait = 5.00
Higher Flow (V) = 4.00
Medium Flow (V) = 3.00
Low Flow (V) = 1.00
-----------------------------------------------------
Total Profile Time = 37 in sec
-----------------------------------------------------
Acquired data point per second = 4
--------------------------------------------------
Total data point stored  = 128
-----------------------------------------------------
Acquired sensor responses from 24 sensors
-----------------------------------------------------

Data Points	 Sen-1	 Sen-2	 Sen-3	 Sen-4	 Sen-5	 Sen-6	 Sen-7	 Sen-8	 Sen-9	 Sen-10	 Sen-11	 Sen-12	 Sen-13	 Sen-14	 Sen-15	 Sen-16	 Sen-17	 Sen-18	 Sen-19	 Sen-20	 Sen-21	 Sen-22	 Sen-23	 Sen-24	Humidity (%r.h.)
0.000	313.562	307.355	298.283	305.111	315.114	315.830	315.759	295.633	285.965	311.079	228.573	275.890	106.460	112.023	120.784	113.789	104.097	103.691	103.524	123.362	133.031	107.749	189.516	142.891	35.953
1.000	312.942	307.188	298.379	304.944	314.851	315.472	315.663	295.514	286.036	311.079	228.621	276.558	106.412	112.023	120.784	113.885	104.144	103.619	103.619	123.410	132.960	107.725	189.587	142.891	36.043
2.000	313.252	307.451	299.047	304.992	314.923	315.162	315.615	295.848	286.227	311.008	228.740	276.105	106.365	112.046	120.689	113.789	104.049	103.500	103.595	123.362	132.936	107.678	189.516	142.748	44.932
3.000	313.133	307.522	298.403	304.753	314.660	315.782	315.806	295.824	286.347	311.223	228.549	276.558	106.508	111.927	120.784	113.694	104.144	103.524	103.500	123.362	133.055	107.725	189.540	142.676	46.872
4.000	313.204	307.260	298.450	305.207	315.042	315.424	315.806	295.872	285.965	311.103	228.812	276.845	106.412	111.999	120.736	113.837	104.120	103.643	103.595	123.291	133.031	107.630	189.420	142.628	39.247
5.000	313.538	307.498	298.498	305.016	314.971	315.806	315.997	295.681	286.060	310.960	228.931	276.511	106.365	111.903	120.641	113.741	104.097	103.715	103.619	123.315	133.055	107.773	189.540	142.533	34.284
6.000	313.276	307.355	298.403	304.801	314.947	315.639	315.878	295.824	286.227	311.032	229.002	276.582	106.269	111.951	120.545	113.646	104.001	103.691	103.643	123.315	132.983	107.582	189.516	142.461	40.961
7.000	313.276	307.403	298.713	305.063	315.066	315.568	315.663	295.633	285.988	311.103	228.812	276.702	106.365	112.094	120.736	113.670	104.001	103.571	103.643	123.243	132.960	107.558	189.659	142.628	47.639
8.000	312.989	307.355	298.737	304.825	314.923	315.353	315.639	295.490	286.036	311.342	228.453	276.726	106.484	111.975	120.593	113.837	104.025	103.500	103.452	123.219	133.127	107.749	189.587	142.437	42.947
9.000	313.085	307.451	299.047	305.087	314.995	315.305	315.902	295.586	285.941	311.175	228.453	277.012	106.341	111.999	120.593	113.574	104.049	103.595	103.643	123.386	132.936	107.606	189.564	142.223	34.690
10.000	311.724	304.777	298.021	304.777	314.493	315.496	315.615	295.538	286.251	310.745	227.880	271.664	107.463	113.885	120.927	113.956	104.192	103.667	103.476	123.315	132.387	108.036	189.993	145.159	37.081
11.000	293.127	249.749	296.087	303.321	314.446	314.780	315.472	293.914	287.397	304.037	225.756	275.054	125.201	167.385	123.076	115.198	104.335	104.073	103.786	124.699	131.551	114.720	192.261	144.490	39.472
12.000	263.142	278.564	290.787	299.859	314.326	314.446	315.400	290.548	288.233	286.036	224.013	296.970	158.218	140.360	128.424	118.755	104.526	104.311	103.810	128.830	131.169	133.843	193.909	122.336	35.637
13.000	231.223	299.238	284.389	294.296	313.514	313.873	315.162	285.177	288.256	269.611	223.010	308.334	187.725	118.015	134.846	124.150	105.266	105.290	104.097	133.700	130.954	149.671	195.341	110.853	46.827
14.000	261.972	311.700	276.821	286.681	313.156	312.655	314.923	279.972	287.492	251.420	221.602	315.305	155.926	106.675	142.079	131.599	105.553	106.006	104.192	138.236	131.097	166.502	196.678	103.548	50.707
15.000	285.750	318.623	269.110	277.704	311.963	311.247	314.159	274.505	286.991	230.148	220.695	320.629	132.506	99.823	150.435	140.862	106.436	107.105	104.574	143.941	131.957	188.418	197.657	99.370	37.848
16.000	301.626	322.419	260.993	268.513	311.151	309.671	313.968	268.919	286.299	235.401	220.360	323.207	117.561	95.765	159.435	150.411	107.343	108.871	105.123	150.148	132.673	183.070	197.967	95.598	29.411
17.000	311.891	325.929	252.184	258.653	310.530	307.785	312.989	262.115	284.962	256.576	219.596	326.263	106.794	93.019	168.340	160.342	108.251	110.805	105.887	156.929	133.676	162.252	198.731	94.070	42.270
18.000	318.050	327.958	245.451	248.889	309.122	305.230	311.891	255.144	284.198	271.569	219.381	326.478	100.157	90.966	176.553	169.653	109.564	113.383	107.105	163.923	134.774	146.758	199.089	92.757	53.865
19.000	323.685	329.462	241.560	239.650	307.809	302.222	310.626	248.149	282.885	283.458	219.071	328.101	96.075	89.414	180.253	179.107	110.924	116.177	108.537	171.253	135.968	134.941	199.208	91.659	43.037
20.000	325.857	330.512	242.157	230.960	306.209	299.358	308.907	240.772	281.524	291.599	218.809	329.128	93.306	88.197	177.269	188.131	112.739	119.567	110.208	178.582	137.066	126.824	199.543	90.250	28.644
21.000	329.008	331.754	245.762	223.703	304.061	295.132	306.830	234.231	280.832	297.782	218.665	329.438	90.584	87.958	171.778	195.866	114.314	123.315	112.452	185.624	138.474	120.187	199.662	90.035	36.404
22.000	329.844	332.016	249.725	221.649	301.912	290.787	304.037	228.239	279.113	302.222	218.689	330.178	89.176	86.860	164.640	197.012	116.344	127.469	114.911	191.306	139.787	115.795	199.901	89.343	52.828
23.000	331.014	333.258	254.165	227.260	299.907	286.394	300.766	224.395	277.919	306.305	218.809	330.178	87.290	86.311	158.528	190.471	118.636	131.647	118.063	195.651	141.315	112.190	199.949	88.579	48.722
24.000	331.420	332.995	259.059	234.135	297.185	281.476	296.851	223.703	276.009	309.408	218.618	330.560	86.979	86.215	153.300	184.001	121.333	136.636	121.787	194.744	142.724	109.373	200.235	89.295	32.073
25.000	332.207	334.547	263.046	238.910	295.060	277.346	293.270	225.803	274.505	310.602	218.665	331.849	86.955	85.857	149.838	179.799	124.174	141.363	125.941	192.930	144.156	107.821	200.426	88.221	30.674
26.000	332.804	333.783	265.171	239.005	293.509	275.508	290.906	225.636	274.290	311.318	218.403	331.205	86.812	85.284	147.164	179.465	125.320	142.843	128.376	192.763	144.658	106.985	200.235	88.818	47.098
27.000	332.566	333.783	266.126	238.003	293.270	275.747	290.477	225.063	274.625	310.865	218.904	331.682	86.597	85.547	146.329	180.420	125.511	142.413	129.044	193.407	144.371	108.083	200.450	88.674	54.226
28.000	332.852	334.404	266.436	236.952	293.604	276.606	290.071	224.562	274.744	310.029	218.570	332.136	87.123	85.046	145.827	181.781	125.487	142.032	129.020	193.789	143.870	108.298	200.426	89.200	39.698
29.000	332.924	334.165	266.555	235.830	293.532	277.036	289.975	224.467	275.174	310.339	218.403	331.802	86.955	85.260	145.111	182.688	125.439	141.650	129.140	194.577	143.655	108.346	200.283	89.009	28.148
30.000	332.828	334.523	268.131	238.814	292.888	275.389	288.996	225.469	274.696	311.151	219.071	331.634	85.881	85.380	144.299	179.752	126.203	143.106	130.238	193.359	143.798	107.463	200.187	88.555	39.518
31.000	332.542	334.213	270.017	242.849	290.787	272.094	286.227	225.326	274.481	310.697	218.259	331.205	87.552	86.192	143.249	175.502	128.161	146.209	133.485	192.619	144.347	107.558	199.996	89.200	54.181
32.000	330.489	334.117	271.235	243.207	289.760	272.022	285.845	224.562	276.821	305.326	218.641	329.796	89.844	86.263	141.148	175.430	128.949	146.400	133.270	194.577	142.055	113.885	199.925	90.704	45.789
33.000	326.478	333.115	271.473	240.557	291.169	274.720	288.352	232.297	279.471	295.944	219.429	326.645	93.115	87.266	141.124	178.033	128.185	143.559	130.692	187.057	139.477	124.079	199.089	92.900	29.907
34.000	322.825	332.207	271.354	235.114	292.506	278.444	291.336	241.823	281.620	281.309	220.313	323.852	96.385	87.576	141.650	182.998	125.989	139.644	127.325	177.531	137.090	137.114	197.752	96.266	33.787
35.000	316.379	330.512	269.468	227.857	295.084	282.670	295.156	249.796	283.315	262.616	221.506	319.531	102.736	89.391	142.581	190.208	123.744	135.968	124.103	169.820	135.562	155.759	196.702	100.134	49.624
36.000	309.265	329.414	268.012	220.193	297.257	286.490	298.092	256.338	284.771	243.088	222.318	313.873	110.447	90.704	145.469	198.253	121.381	132.339	120.951	163.207	134.225	177.412	196.105	106.197	50.030
37.000	296.421	327.361	266.006	224.801	299.644	289.951	300.981	261.351	285.415	221.196	222.963	307.952	123.148	92.852	147.570	193.479	119.161	128.543	118.182	157.167	133.365	198.015	195.436	112.285	36.089
38.000	277.513	324.449	262.688	234.565	301.435	293.437	303.655	266.102	286.299	239.316	223.177	300.336	141.459	95.049	150.936	183.691	117.370	124.890	115.222	152.727	133.151	179.441	194.887	118.421	31.892
39.000	253.067	321.249	258.534	244.401	303.297	297.113	305.780	269.659	286.179	254.834	223.917	293.891	166.072	98.367	155.377	174.261	115.460	121.548	113.097	149.146	132.649	164.449	194.386	125.607	42.992
40.000	228.740	317.072	254.523	253.234	304.729	300.121	307.594	272.428	286.060	266.579	224.705	286.728	190.423	101.996	160.032	165.499	113.837	118.540	111.569	146.185	132.673	152.727	193.932	132.267	49.444
41.000	226.949	312.894	249.271	261.112	306.042	302.795	309.170	275.078	286.442	274.672	224.610	279.805	192.882	106.770	165.499	157.860	112.500	115.962	109.898	143.727	132.530	143.989	193.622	139.000	41.683
42.000	240.677	306.400	244.043	267.582	307.116	305.039	310.530	276.702	286.084	280.617	225.087	272.834	178.367	113.145	171.730	150.793	111.235	113.479	108.847	141.411	132.506	138.045	193.264	146.257	34.600
43.000	254.070	298.928	238.958	273.073	308.549	307.212	311.318	278.922	286.418	285.869	225.087	266.555	165.284	120.474	177.794	145.517	110.232	111.497	107.678	139.573	132.602	133.437	193.001	152.321	38.525
44.000	264.741	289.307	235.496	277.704	309.193	308.549	312.345	280.521	286.466	289.355	225.493	259.704	155.472	129.856	183.547	141.077	109.635	110.137	106.914	137.854	132.363	129.784	192.858	158.695	45.744
45.000	273.598	279.662	232.965	281.357	310.268	310.124	312.583	281.691	286.156	291.742	225.708	253.616	146.711	140.217	187.439	137.281	108.800	108.800	106.317	136.684	132.530	127.063	192.428	165.069	43.353
46.000	279.853	269.826	233.467	284.461	310.674	311.008	313.252	282.933	286.418	293.938	226.162	247.624	139.453	150.339	187.296	134.034	108.012	107.606	105.863	135.514	132.554	124.867	192.285	171.038	38.796
47.000	285.439	259.537	237.072	287.063	311.247	311.915	313.729	283.864	286.490	295.562	226.257	241.655	134.058	159.125	183.571	131.384	107.439	107.009	105.577	134.464	132.554	123.171	191.975	176.576	38.525
48.000	289.641	248.364	241.226	288.996	311.509	312.249	314.135	284.771	286.275	297.328	226.209	237.000	130.023	170.250	179.370	129.355	106.985	106.460	105.338	133.580	132.625	121.715	191.736	181.518	42.225
49.000	292.673	235.233	245.905	291.264	312.130	313.204	314.040	285.654	286.370	298.259	226.567	232.369	126.848	183.094	174.022	127.636	106.603	105.935	104.861	132.673	132.602	120.665	191.521	185.696	43.037
50.000	295.180	223.488	250.465	292.864	312.655	313.324	314.398	286.585	286.108	299.405	226.949	228.071	124.341	195.580	168.459	125.726	106.245	105.505	104.908	131.933	132.602	119.209	191.545	190.423	40.239
51.000	297.400	231.342	254.834	294.511	313.037	313.944	314.875	287.612	286.227	300.432	226.663	224.347	122.217	188.776	163.732	124.150	105.983	105.290	104.550	131.074	132.697	118.325	191.497	194.147	39.157
52.000	298.713	242.992	259.250	295.586	312.989	313.825	314.637	288.519	286.108	301.435	226.902	221.721	120.450	176.720	159.626	123.100	105.648	104.813	104.455	130.286	132.816	117.609	191.497	197.060	40.375
53.000	300.360	253.879	263.046	296.540	313.204	314.159	314.732	289.044	286.156	302.198	227.212	220.026	119.232	166.239	156.165	122.217	105.553	104.741	104.359	129.641	132.864	117.036	191.378	199.328	41.097
54.000	301.864	262.401	266.293	297.567	313.801	314.231	314.923	289.593	286.132	302.676	227.260	219.811	118.086	157.215	152.918	121.453	105.553	104.598	104.240	128.949	132.864	116.129	191.282	200.235	40.465
55.000	302.652	268.823	268.776	297.997	313.419	314.040	314.804	290.238	286.275	303.607	227.307	220.647	116.964	150.602	150.435	120.665	105.386	104.502	104.192	128.424	132.697	115.556	191.211	199.208	40.916
56.000	303.249	274.123	271.330	298.617	313.634	314.469	315.162	291.503	286.251	304.037	226.878	222.437	116.033	145.350	147.928	120.092	105.171	104.431	104.264	127.182	132.721	114.983	191.187	197.704	40.961
57.000	304.061	277.585	273.288	299.190	313.514	314.541	315.448	292.005	286.084	304.466	227.331	223.941	115.460	141.650	145.875	119.638	105.123	104.264	104.120	126.896	132.888	114.744	191.068	195.818	39.743
58.000	304.610	281.357	275.293	299.811	313.920	314.851	315.257	292.410	286.156	304.443	227.498	225.947	114.768	138.355	144.109	119.113	105.028	104.240	104.025	126.490	133.031	114.458	190.972	193.980	39.427
59.000	304.705	284.126	276.582	300.599	313.896	314.637	315.210	292.386	285.821	304.729	227.236	227.737	114.410	135.371	142.175	118.755	105.028	104.192	104.001	126.275	133.031	114.004	190.996	191.927	41.458
60.000	305.517	286.156	278.421	300.289	313.873	314.660	315.377	292.888	286.299	305.302	227.498	229.337	113.789	133.151	140.790	118.349	104.884	104.168	104.073	126.108	132.912	113.598	190.924	190.041	42.225
61.000	306.233	287.946	279.519	300.671	313.968	314.947	315.042	293.174	286.466	305.636	227.642	231.056	113.264	131.623	139.644	118.015	104.837	104.025	103.834	125.798	133.007	113.479	190.829	188.251	39.924
62.000	306.854	289.999	280.712	301.148	314.231	315.066	315.472	293.222	285.988	305.899	227.498	232.679	112.930	129.784	138.355	117.681	104.789	104.073	103.953	125.821	132.960	113.001	190.733	186.508	39.157
63.000	306.663	291.193	281.954	301.053	314.231	315.019	315.353	293.127	286.299	306.448	227.498	234.255	112.524	128.328	137.352	117.537	104.670	104.001	104.001	125.463	133.007	112.858	190.638	184.884	40.826
64.000	307.116	292.458	282.956	301.196	314.016	315.019	315.424	293.413	286.108	306.209	227.618	235.592	112.214	127.015	136.230	117.275	104.598	103.929	103.906	125.392	132.960	112.524	190.590	183.547	43.488
65.000	307.045	293.294	283.816	301.602	314.278	315.353	315.568	293.556	285.869	306.233	227.833	237.119	112.190	126.203	135.442	117.108	104.646	103.882	103.882	125.272	133.079	112.309	190.495	182.211	41.277
66.000	307.403	294.440	285.320	301.793	314.326	315.042	315.305	293.604	286.012	306.663	227.689	238.051	111.545	125.177	134.702	116.941	104.526	103.929	103.906	125.201	133.079	112.166	190.518	181.112	39.247
67.000	307.928	294.989	285.320	301.864	314.326	315.138	315.544	293.843	286.156	306.949	227.713	239.340	111.688	124.270	133.938	116.845	104.574	103.977	103.858	124.986	133.007	112.070	190.447	179.895	39.021
68.000	308.453	295.800	285.630	302.222	314.446	315.138	315.663	293.986	286.514	306.925	228.024	240.509	111.330	123.553	133.198	116.511	104.431	103.834	103.834	125.010	133.055	111.999	190.495	178.940	43.353
69.000	307.833	296.135	286.633	302.318	314.326	314.851	315.377	294.177	286.084	307.116	228.000	241.417	110.972	122.909	132.554	116.535	104.574	103.786	103.810	125.081	132.983	111.808	190.328	177.866	43.127
70.000	308.501	297.567	287.325	302.389	314.493	315.186	315.472	293.843	286.203	307.379	227.809	242.945	111.020	122.408	132.220	116.439	104.479	104.025	103.906	124.867	133.007	111.688	190.351	176.600	39.382
71.000	309.289	297.806	287.660	302.270	314.278	315.066	315.735	294.320	286.227	307.666	227.618	243.518	110.710	121.739	131.718	116.081	104.526	103.858	103.739	124.771	133.031	111.306	190.423	175.812	38.299
72.000	309.098	298.045	288.328	302.819	314.851	315.400	315.591	293.962	285.797	307.761	228.167	244.496	110.590	121.190	131.026	116.129	104.502	103.810	103.786	124.676	132.936	111.259	190.447	174.858	42.360
73.000	308.835	298.689	288.662	302.676	314.374	315.042	315.544	294.392	286.036	307.880	227.928	245.595	110.351	120.689	130.525	116.105	104.526	103.834	103.762	124.652	133.007	111.211	190.184	173.616	44.571
74.000	309.170	299.143	289.235	302.843	314.350	315.210	315.639	294.440	286.036	307.904	227.857	246.454	109.993	120.283	130.334	115.842	104.359	103.810	103.762	124.676	133.103	111.044	190.304	172.709	40.510
75.000	309.456	299.835	289.689	302.795	314.350	315.305	315.448	294.440	285.988	307.904	228.215	247.218	110.041	119.996	129.928	115.842	104.335	103.953	103.786	124.604	133.174	110.996	190.184	171.945	37.668
76.000	309.432	299.763	289.713	302.986	314.565	315.257	315.472	294.440	285.821	307.976	228.191	248.221	109.755	119.543	129.402	115.842	104.383	103.858	103.762	124.508	132.960	110.948	190.160	171.133	40.194
77.000	309.838	300.121	290.095	303.058	314.541	315.377	315.663	294.296	286.012	308.191	227.952	248.746	109.778	119.161	129.116	115.580	104.359	103.715	103.786	124.532	133.103	110.901	190.017	170.369	44.030
78.000	309.742	300.527	290.715	303.321	314.756	315.615	315.544	294.368	285.869	308.024	228.310	249.629	109.611	118.850	128.830	115.604	104.431	103.929	103.834	124.365	132.983	110.495	190.160	169.438	42.405
79.000	309.933	300.981	290.691	303.034	314.350	315.138	315.448	294.678	285.965	307.928	227.952	250.560	109.444	118.683	128.639	115.604	104.359	103.786	103.858	124.461	133.055	110.447	190.137	168.770	38.164
80.000	310.196	301.076	291.312	303.177	314.517	315.448	315.782	294.559	285.869	308.382	228.071	251.038	109.588	118.421	128.209	115.484	104.359	103.810	103.810	124.365	133.031	110.423	190.041	168.077	38.525
81.000	310.005	301.411	291.193	303.034	314.398	315.233	315.568	294.750	286.060	308.692	228.000	251.969	109.182	118.110	127.922	115.341	104.264	103.858	103.643	124.270	133.127	110.399	190.017	167.409	43.669
82.000	310.363	301.578	291.933	303.297	314.422	315.448	315.520	294.440	285.893	308.716	228.501	252.661	109.134	117.895	127.684	115.365	104.264	103.667	103.571	124.246	133.198	110.447	190.184	166.645	44.120
83.000	309.933	301.864	292.100	303.344	314.326	315.281	315.496	294.463	285.988	309.217	227.952	253.306	109.349	117.609	127.540	115.317	104.383	103.762	103.786	124.270	133.079	110.304	190.113	165.786	39.563
84.000	310.674	301.793	292.196	303.559	314.756	315.257	315.591	294.869	286.108	308.668	228.119	254.714	108.847	117.322	127.325	115.317	104.311	103.810	103.739	124.270	133.079	110.304	190.089	164.807	36.991
85.000	310.674	302.318	292.267	303.082	314.541	315.162	315.759	294.702	286.036	308.811	228.262	255.550	108.871	117.060	126.943	115.198	104.288	103.739	103.619	124.270	133.103	110.041	189.993	164.019	41.232
86.000	310.650	302.819	292.649	303.512	314.589	315.305	315.520	294.678	286.179	308.907	228.453	255.884	108.752	116.821	126.729	115.150	104.383	103.715	103.619	124.198	132.983	109.969	189.993	163.279	45.022
87.000	310.602	303.130	292.840	303.703	314.637	315.066	315.329	294.583	285.797	309.217	228.310	256.481	108.776	116.630	126.394	115.150	104.335	103.739	103.619	124.222	132.983	109.826	189.969	162.610	41.909
88.000	311.103	303.249	293.150	303.631	314.613	315.353	315.639	294.822	285.988	309.002	228.239	257.436	108.609	116.487	126.251	115.102	104.240	103.548	103.667	124.031	133.103	109.922	189.898	161.894	36.720
89.000	310.483	303.440	293.318	303.559	314.637	315.377	315.520	294.726	285.893	309.002	228.286	258.009	108.943	116.344	125.965	114.864	104.264	103.858	103.619	124.103	133.007	109.778	189.874	161.393	38.751
