-----------------------------------------------------
BloodHound 307 VOC Analyser V2017.1
RoboScientific Ltd 
Espace North
Wisbech Road
Littleport
Cambridgeshire, UK
CB6 1RA 
-----------------------------------------------------
Date = 06/04/2022
Time = 12:38:22
Data is protected by RoboScientific Limited
-----------------------------------------------------
Name of the experiment = "32b_Day 43"
-----------------------------------------------------
Repeat No. = 2/4
-----------------------------------------------------
Experimental Time (in sec) and Flow Profile :
-----------------------------------------------------
Baseline = 2.00
Absorb = 4.00
Pause = 1.00
Desorb = 5.00
Flush = 20.00
Wait = 5.00
Higher Flow (V) = 4.00
Medium Flow (V) = 3.00
Low Flow (V) = 1.00
-----------------------------------------------------
Total Profile Time = 37 in sec
-----------------------------------------------------
Acquired data point per second = 4
--------------------------------------------------
Total data point stored  = 128
-----------------------------------------------------
Acquired sensor responses from 24 sensors
-----------------------------------------------------

Data Points	 Sen-1	 Sen-2	 Sen-3	 Sen-4	 Sen-5	 Sen-6	 Sen-7	 Sen-8	 Sen-9	 Sen-10	 Sen-11	 Sen-12	 Sen-13	 Sen-14	 Sen-15	 Sen-16	 Sen-17	 Sen-18	 Sen-19	 Sen-20	 Sen-21	 Sen-22	 Sen-23	 Sen-24	Humidity (%r.h.)
0.000	313.013	308.549	292.100	305.660	314.995	315.520	315.735	297.830	286.514	311.676	229.957	279.328	106.030	111.259	126.776	113.025	104.144	103.428	103.500	121.262	132.792	107.343	188.251	139.692	44.706
1.000	313.061	308.119	292.148	305.398	314.541	315.663	315.782	297.901	286.275	311.533	230.268	279.519	106.054	111.163	126.967	113.049	104.097	103.524	103.500	121.142	132.792	107.296	188.179	139.596	47.639
2.000	313.562	308.477	292.697	305.517	314.804	315.735	315.591	297.710	286.275	311.676	230.053	279.543	106.030	111.187	126.705	112.978	103.953	103.428	103.524	121.214	132.864	107.320	188.179	139.453	40.691
3.000	313.467	308.238	292.577	305.827	315.114	315.830	316.021	297.782	286.203	311.676	230.053	279.877	106.197	111.283	126.776	113.192	104.120	103.404	103.548	121.190	132.888	107.296	188.107	139.310	34.013
4.000	313.443	308.167	292.840	305.732	315.090	315.520	315.806	297.925	286.275	311.438	229.981	279.925	106.245	111.092	126.609	112.906	103.977	103.476	103.643	121.333	132.769	107.343	188.107	139.023	37.848
5.000	313.276	308.382	292.291	305.469	314.756	315.568	316.045	297.806	286.418	311.939	230.292	280.044	106.269	111.187	126.538	113.001	103.929	103.619	103.691	121.142	132.769	107.367	188.227	139.071	45.925
6.000	313.562	308.525	292.577	305.970	314.637	315.472	315.950	297.591	286.418	311.891	230.029	280.378	106.197	111.187	126.609	112.906	104.049	103.452	103.548	121.142	132.888	107.296	188.203	138.761	47.098
7.000	313.347	308.549	293.007	305.708	314.995	315.544	315.711	297.710	286.275	311.557	230.053	280.354	106.102	110.996	126.371	112.978	104.144	103.619	103.571	121.118	132.769	107.224	188.155	138.952	39.382
8.000	312.989	308.573	292.601	305.589	314.756	315.544	315.615	297.734	286.466	311.843	230.172	280.402	106.197	110.996	126.562	113.025	103.977	103.500	103.452	121.285	132.792	107.272	188.131	138.689	33.697
9.000	313.371	308.453	292.983	305.660	315.186	315.639	315.806	297.686	286.299	311.772	230.220	280.426	106.150	110.877	126.275	112.810	103.977	103.428	103.571	121.142	132.816	107.176	188.060	138.594	39.157
10.000	311.915	305.827	292.219	305.398	314.875	315.305	315.639	297.782	286.657	311.103	229.504	274.863	107.033	112.954	126.609	113.097	104.049	103.548	103.571	121.238	132.315	107.964	188.680	142.819	47.459
11.000	296.755	257.364	289.331	304.180	314.493	315.329	315.663	296.015	287.469	305.445	227.260	279.996	123.721	165.237	129.904	114.649	104.264	103.667	103.524	122.742	131.145	113.932	190.900	140.408	39.157
12.000	265.386	277.657	280.856	300.981	313.920	314.875	315.711	291.909	288.304	287.421	225.493	301.100	155.234	140.098	138.904	117.585	104.717	104.097	103.739	127.015	130.716	132.124	192.595	118.588	46.421
13.000	231.796	300.456	269.182	295.299	313.156	314.159	315.090	286.800	288.233	271.378	224.013	311.939	185.983	117.227	149.194	122.670	105.195	104.622	103.906	131.599	130.596	147.045	194.267	107.701	49.940
14.000	264.765	312.965	257.412	287.827	312.607	313.300	314.660	281.858	287.803	253.115	222.676	319.244	152.918	105.266	161.775	130.453	105.911	105.243	104.144	136.564	131.026	165.117	195.389	100.611	38.480
15.000	288.805	320.127	246.740	278.731	311.772	312.106	314.159	276.296	287.301	231.223	221.673	323.279	131.097	98.582	173.640	139.668	106.699	106.365	104.717	142.175	131.527	187.391	196.367	96.696	29.411
16.000	303.535	324.711	238.456	269.754	310.817	310.793	313.849	270.184	286.681	236.332	220.981	326.406	115.651	94.428	183.619	149.050	107.916	107.940	105.171	148.740	132.267	182.115	197.131	94.499	38.751
17.000	313.443	327.600	237.358	259.226	309.647	308.931	312.965	263.189	285.201	256.982	220.909	327.743	105.553	91.515	182.640	159.411	108.943	109.731	106.030	155.687	133.318	161.321	197.537	92.494	53.098
18.000	320.127	329.605	243.613	249.462	308.191	306.639	311.509	255.956	284.556	272.834	220.551	329.868	98.558	89.653	171.682	169.223	110.447	111.879	107.200	162.849	134.392	144.681	198.063	90.727	48.993
19.000	324.783	330.584	252.064	239.626	306.567	303.583	310.053	248.340	283.386	284.651	220.408	330.512	94.834	88.221	161.608	178.844	112.094	114.601	108.513	170.322	135.442	134.106	198.182	90.274	32.975
20.000	328.053	332.064	258.844	231.199	304.419	300.456	308.429	241.560	282.193	293.127	220.169	330.560	91.706	87.099	152.727	188.251	114.052	117.943	110.614	178.152	136.923	125.320	198.468	89.032	29.411
21.000	328.961	332.446	265.338	222.533	302.557	296.708	305.970	234.231	280.760	299.596	219.668	332.207	89.558	86.597	145.111	196.320	116.439	121.811	113.145	185.290	138.188	118.827	198.683	88.913	42.811
22.000	330.321	333.329	269.898	221.888	299.883	292.840	302.724	228.573	279.208	303.655	219.763	331.945	88.292	86.311	139.787	196.821	119.161	126.180	116.344	191.426	139.620	113.885	198.612	88.603	54.858
23.000	332.303	333.783	275.221	228.119	296.899	287.994	299.023	223.989	277.728	307.737	219.835	332.852	87.146	85.165	134.989	189.802	122.169	130.357	119.686	195.413	141.100	110.924	199.065	87.887	45.925
24.000	333.186	334.380	278.253	235.257	293.103	283.100	295.036	224.538	275.962	310.912	219.740	333.067	86.764	84.974	131.623	183.070	125.702	135.204	124.031	193.932	142.939	107.821	198.898	87.958	30.268
25.000	332.900	334.595	281.715	240.199	289.569	278.803	290.882	227.236	274.792	312.989	219.835	333.592	85.571	85.237	128.567	178.009	129.379	139.883	128.280	191.306	144.299	106.054	199.328	88.006	31.667
26.000	334.022	335.001	282.933	240.462	287.445	277.155	288.137	226.973	274.195	313.109	219.525	332.995	85.499	84.210	127.254	177.937	131.766	141.697	131.169	191.521	144.992	105.911	199.328	87.528	47.639
27.000	333.425	334.595	283.792	239.698	286.848	277.346	286.919	226.185	274.243	312.488	219.644	333.616	85.260	85.571	126.848	178.797	132.005	141.291	131.766	192.142	144.681	105.911	199.280	86.836	54.587
28.000	333.568	334.452	284.293	238.361	286.991	277.537	286.872	226.042	274.625	312.345	219.763	333.473	85.093	85.356	126.824	179.775	132.172	140.933	132.005	192.882	144.228	106.699	198.898	86.836	42.089
29.000	333.926	334.810	284.437	237.310	287.230	278.206	287.063	224.920	274.911	312.130	219.787	332.733	85.404	85.022	126.848	181.375	132.076	140.360	132.148	193.359	143.918	107.105	199.256	87.552	28.554
30.000	334.284	334.857	285.296	240.533	286.156	276.893	285.750	226.973	274.386	313.085	219.954	333.807	85.046	85.428	126.275	178.152	133.055	141.769	133.318	191.450	144.132	105.457	199.232	87.051	34.554
31.000	333.592	334.571	286.561	245.141	282.956	272.954	282.742	227.475	273.717	313.753	220.026	333.282	86.526	84.807	125.201	173.162	135.944	145.684	136.827	190.829	145.087	105.696	199.256	87.194	50.617
32.000	332.327	335.144	287.540	246.048	281.572	272.572	281.238	224.777	275.747	308.907	219.429	331.181	87.839	85.022	123.768	172.470	137.734	146.376	137.710	193.121	143.010	110.113	198.970	88.531	53.053
33.000	329.701	334.261	288.376	244.091	282.956	274.792	284.102	228.979	278.683	300.599	220.145	329.032	90.011	85.451	123.697	174.261	136.326	143.559	135.060	190.208	140.265	118.612	198.063	90.584	38.525
34.000	325.976	333.162	287.301	239.101	285.177	278.062	287.373	238.671	281.094	288.543	221.554	326.621	93.616	86.812	124.771	179.537	134.034	140.074	131.097	180.707	137.591	131.838	197.179	93.616	28.599
35.000	321.703	332.160	287.087	231.987	288.137	282.216	291.479	247.481	282.837	271.640	222.175	322.682	97.531	87.051	125.678	186.365	130.859	136.397	127.325	171.587	135.753	147.284	196.057	96.935	38.029
36.000	314.804	330.847	285.988	223.368	291.264	286.323	295.323	254.953	284.580	251.157	223.010	317.788	104.717	88.841	127.039	194.386	127.803	132.816	123.959	164.449	134.440	167.743	195.269	101.900	51.610
37.000	304.920	329.080	283.434	221.291	294.416	289.975	298.594	260.969	285.320	229.886	223.917	312.727	114.864	90.536	129.140	197.537	124.270	128.734	120.569	158.051	133.365	189.635	194.314	107.487	48.677
38.000	288.710	327.313	280.354	230.841	297.113	293.461	301.649	265.648	285.821	231.127	224.514	306.376	131.503	92.995	131.981	188.036	121.978	125.225	117.299	152.942	132.792	187.248	193.718	114.100	36.540
39.000	266.245	324.520	277.728	240.820	299.286	296.946	304.252	269.492	286.514	248.364	225.016	298.641	153.586	94.953	135.538	177.245	119.209	121.620	114.458	148.883	132.458	169.987	193.240	120.951	31.757
40.000	240.509	321.082	273.550	250.656	301.626	300.265	306.281	272.930	286.179	261.852	225.374	292.052	177.770	98.367	139.000	167.767	116.702	118.277	112.333	145.374	132.387	156.594	192.882	128.257	40.781
41.000	221.124	316.976	268.800	258.940	303.703	303.201	308.262	275.747	286.657	272.166	226.042	283.983	198.039	101.948	144.849	159.769	115.126	115.484	110.781	142.676	132.315	147.140	192.285	135.084	48.902
42.000	232.321	312.631	263.643	266.221	305.230	305.541	309.933	278.062	286.872	279.089	226.114	277.585	187.701	106.723	150.793	152.655	113.264	113.097	109.182	140.289	132.148	139.907	191.879	142.700	44.345
43.000	245.690	306.830	257.651	271.951	306.711	307.642	310.841	279.638	286.776	284.150	226.353	270.877	173.234	113.264	157.430	146.400	112.118	111.068	108.107	138.546	132.196	134.583	191.664	149.146	36.630
44.000	258.629	298.164	250.942	276.797	307.833	309.289	311.963	281.381	286.633	288.304	226.687	263.476	160.414	120.498	164.687	141.482	110.710	109.301	107.176	136.946	132.220	130.668	191.473	155.448	36.449
45.000	269.253	289.546	244.592	280.975	309.002	310.888	312.703	282.861	286.872	291.432	226.997	256.743	150.602	129.498	171.587	137.472	109.778	108.131	106.675	135.466	132.220	127.707	191.330	162.228	42.856
46.000	277.609	280.116	237.860	284.293	309.432	311.366	312.918	284.055	286.919	293.819	227.307	250.178	142.103	138.809	178.749	134.249	108.967	107.105	105.935	134.297	132.363	125.225	190.996	168.650	44.751
47.000	284.007	270.113	233.085	287.301	310.578	312.345	313.419	285.057	286.728	295.562	227.618	244.449	135.395	149.599	185.028	131.265	108.251	106.579	105.648	133.246	132.363	123.291	190.829	174.547	41.458
48.000	288.137	258.964	230.220	289.402	310.960	313.180	313.873	286.227	286.466	296.922	227.737	238.814	131.097	160.724	189.516	129.044	107.654	106.174	105.266	132.076	132.291	121.596	190.542	180.181	38.751
49.000	291.837	246.860	230.554	291.384	311.652	313.276	313.992	287.588	286.466	298.522	227.976	233.729	127.493	171.802	190.065	127.039	107.057	105.505	105.028	130.859	132.434	120.259	190.328	184.502	39.066
50.000	294.463	232.393	234.255	293.341	312.010	313.849	314.350	288.901	286.585	299.835	228.095	228.788	124.628	185.696	186.221	125.296	106.794	105.052	104.693	129.880	132.482	118.994	190.256	189.707	42.270
51.000	296.827	224.920	238.289	294.798	312.297	313.873	314.374	289.355	286.609	301.220	228.024	224.132	122.599	195.818	181.709	123.888	106.341	104.837	104.526	129.044	132.554	117.919	190.208	194.505	41.819
52.000	298.188	238.480	242.252	295.872	312.345	314.111	314.613	290.190	286.394	302.079	228.048	221.100	120.975	181.065	176.863	122.455	106.150	104.550	104.526	128.018	132.434	116.941	189.969	197.824	40.285
53.000	300.456	251.420	246.311	297.400	313.276	314.541	314.947	291.002	286.251	302.509	228.501	219.000	119.423	167.648	172.661	121.405	105.768	104.407	104.359	127.493	132.554	116.105	189.969	200.163	39.969
54.000	301.244	262.067	250.536	298.188	313.467	314.923	315.019	291.670	286.466	303.273	228.358	218.809	118.206	157.430	168.865	120.569	105.577	104.264	104.311	126.824	132.673	115.484	189.874	201.023	40.600
55.000	302.366	269.301	253.521	298.785	313.443	314.971	315.233	293.055	286.418	303.941	228.286	220.002	116.988	150.268	165.857	119.877	105.505	104.240	104.144	125.678	132.530	114.911	189.778	200.235	40.465
56.000	303.297	274.935	256.409	299.143	313.467	314.708	315.305	293.556	286.132	304.443	228.668	221.387	116.272	144.729	162.706	119.328	105.338	104.073	104.073	125.225	132.554	114.649	189.802	198.683	40.104
57.000	303.965	278.874	258.940	300.026	313.729	315.066	315.233	293.843	286.347	304.968	228.859	222.891	115.365	140.408	160.080	118.850	105.243	104.073	104.073	124.914	132.578	114.219	189.731	196.869	41.097
58.000	304.825	282.240	261.065	300.456	313.849	314.875	315.162	294.034	286.466	305.302	228.692	225.230	114.768	136.851	157.525	118.301	105.099	104.120	104.025	124.508	132.506	113.622	189.731	194.983	41.728
59.000	305.230	285.392	263.691	300.790	314.111	315.019	315.329	294.535	286.538	305.469	228.764	227.093	114.171	134.082	155.425	117.943	104.980	103.858	103.929	124.413	132.745	113.383	189.564	192.476	40.555
60.000	306.185	287.755	265.553	301.100	313.825	315.019	315.448	294.774	286.585	305.947	229.002	229.170	113.527	131.909	153.753	117.537	105.052	103.834	103.977	124.222	132.602	112.978	189.420	190.709	39.202
61.000	306.496	289.498	267.272	301.244	314.183	315.090	315.735	295.036	286.394	306.305	228.931	230.841	113.049	129.880	151.915	117.251	104.861	103.858	103.929	124.079	132.649	112.787	189.396	188.823	39.698
62.000	306.997	290.930	268.656	301.793	314.350	315.472	315.329	294.989	286.251	306.639	228.907	232.440	112.787	128.328	150.387	116.893	104.837	103.739	103.858	123.744	132.578	112.405	189.444	186.985	42.450
63.000	307.403	292.554	270.065	302.031	314.064	315.353	315.782	295.180	286.323	306.925	229.265	234.422	112.381	126.943	148.979	116.726	104.789	103.595	103.667	123.458	132.578	112.142	189.349	185.147	42.631
64.000	307.331	294.058	271.473	302.342	314.111	314.947	315.711	295.514	286.490	306.949	228.979	235.902	111.927	125.726	147.594	116.439	104.789	103.810	103.858	123.601	132.816	112.023	189.420	183.882	39.833
65.000	307.451	295.132	272.977	302.342	314.207	315.138	315.377	295.084	286.108	307.116	229.122	237.263	111.808	124.771	146.329	116.248	104.741	103.858	103.786	123.410	132.745	111.593	189.349	182.306	39.021
66.000	308.262	296.015	274.028	302.652	314.302	315.305	315.591	295.562	286.156	307.212	228.931	238.361	111.306	123.721	145.493	116.009	104.574	103.691	103.739	123.267	132.721	111.593	189.229	180.707	40.375
67.000	308.000	296.660	274.720	302.891	314.302	315.400	315.639	295.681	286.156	307.212	229.026	240.342	111.068	122.861	144.467	116.009	104.550	103.786	103.786	123.124	132.792	111.330	189.182	179.250	43.804
68.000	308.334	297.543	275.484	303.392	314.302	315.281	315.448	295.729	286.036	307.546	228.979	241.273	110.877	122.193	143.631	115.818	104.693	103.643	103.739	122.957	132.769	111.187	189.182	178.009	42.541
69.000	308.668	297.925	276.535	303.201	314.517	315.210	315.400	295.896	286.132	308.095	228.907	242.754	110.924	121.333	142.581	115.842	104.622	103.667	103.571	122.861	132.673	111.163	189.158	176.529	39.382
70.000	308.931	298.689	277.442	303.106	314.064	315.257	315.663	296.015	286.299	307.928	229.026	243.900	110.447	120.856	142.103	115.556	104.502	103.571	103.691	122.957	132.769	110.972	189.182	175.168	38.254
71.000	308.883	299.238	277.943	303.130	314.326	315.305	315.782	296.182	286.490	308.238	229.026	245.093	110.495	120.331	141.268	115.389	104.574	103.619	103.762	122.790	132.840	110.877	189.158	174.332	41.367
72.000	309.361	299.811	278.421	303.273	314.469	315.186	315.711	296.326	286.347	308.119	229.337	246.335	110.280	119.781	140.551	115.269	104.359	103.619	103.619	122.599	132.792	110.638	189.038	172.900	44.165
73.000	309.790	300.503	279.590	303.392	314.231	315.472	315.544	296.349	286.251	308.238	229.313	247.767	109.802	119.232	140.026	115.078	104.383	103.739	103.810	122.718	132.792	110.519	188.967	171.253	42.135
74.000	309.742	300.694	279.757	303.583	314.350	315.424	315.735	296.684	286.394	308.811	229.337	249.916	109.611	118.564	139.119	115.102	104.335	103.571	103.834	122.742	132.792	110.375	189.038	169.629	38.344
75.000	310.148	301.291	280.450	303.273	314.422	315.591	315.902	296.612	286.490	308.644	229.408	250.775	109.611	118.182	138.474	115.055	104.431	103.571	103.667	122.503	132.792	110.232	188.991	168.722	38.209
76.000	309.910	301.387	281.309	303.535	314.278	315.210	315.663	296.588	286.179	309.002	229.146	251.587	109.564	117.872	138.045	114.792	104.335	103.524	103.691	122.575	132.960	110.160	189.038	167.791	42.541
77.000	310.220	301.793	281.429	304.180	314.422	315.424	315.806	296.660	286.466	308.931	229.337	252.518	109.253	117.490	137.448	114.887	104.455	103.643	103.595	122.384	132.792	109.993	188.943	166.884	44.661
78.000	310.220	302.366	282.025	304.061	314.732	315.162	315.591	296.588	286.585	309.026	229.265	253.544	109.325	117.322	136.923	114.696	104.383	103.595	103.643	122.431	132.960	109.922	188.823	166.024	41.052
79.000	310.363	302.652	282.431	304.204	314.756	315.233	315.663	296.445	286.179	308.979	229.289	254.117	108.991	117.012	136.684	114.840	104.311	103.595	103.619	122.336	132.840	109.993	189.014	165.260	37.126
80.000	311.103	302.700	282.885	304.013	314.446	315.926	315.926	296.660	286.108	309.074	229.504	254.786	108.991	116.773	136.183	114.625	104.431	103.643	103.619	122.217	132.625	109.683	188.895	164.616	38.660
81.000	310.005	303.034	283.219	304.061	314.326	315.186	315.496	296.469	285.917	309.241	229.695	255.598	108.847	116.606	135.944	114.529	104.335	103.428	103.643	122.240	132.816	109.850	188.847	163.637	43.984
82.000	310.578	303.321	283.983	304.275	314.708	315.305	315.544	296.755	286.299	309.265	229.432	256.290	108.967	116.153	135.466	114.529	104.359	103.500	103.595	122.145	132.673	109.588	188.943	162.969	44.526
83.000	310.530	303.488	284.150	304.490	314.565	315.257	315.806	296.708	286.275	309.552	229.599	257.197	108.728	116.033	135.228	114.505	104.335	103.571	103.643	122.073	132.840	109.659	188.752	162.419	39.924
84.000	310.697	303.559	284.150	304.323	314.589	315.520	315.400	296.564	286.036	309.217	229.337	258.056	108.465	115.962	135.037	114.386	104.431	103.667	103.595	122.097	132.840	109.588	188.847	161.417	36.630
85.000	311.079	303.941	284.675	304.299	314.517	315.568	315.687	296.851	286.251	309.599	229.384	258.844	108.537	115.747	134.655	114.314	104.264	103.643	103.571	122.193	132.936	109.397	188.823	160.701	39.924
86.000	311.151	303.941	284.842	304.371	315.042	315.591	315.735	297.042	286.299	309.361	229.623	259.680	108.561	115.389	134.320	114.434	104.288	103.452	103.619	121.930	132.745	109.349	188.800	159.698	45.022
87.000	310.912	304.419	285.344	304.419	314.613	315.544	315.568	296.660	286.012	309.599	229.528	260.181	108.322	115.126	133.986	114.219	104.216	103.548	103.548	122.049	132.912	109.349	188.656	158.934	43.759
88.000	311.175	304.466	285.368	304.443	314.708	315.424	315.782	296.994	286.323	309.456	229.671	260.850	108.346	115.246	133.867	114.076	104.216	103.619	103.691	122.073	132.721	109.182	188.585	158.433	38.074
89.000	311.414	304.657	285.750	304.657	314.684	315.377	315.544	296.994	286.275	309.647	229.432	261.685	108.370	114.792	133.413	114.100	104.240	103.524	103.619	122.026	132.912	109.206	188.680	157.669	36.630
