-----------------------------------------------------
BloodHound 307 VOC Analyser V2017.1
RoboScientific Ltd 
Espace North
Wisbech Road
Littleport
Cambridgeshire, UK
CB6 1RA 
-----------------------------------------------------
Date = 06/04/2022
Time = 11:53:41
Data is protected by RoboScientific Limited
-----------------------------------------------------
Name of the experiment = "32b_Day 28"
-----------------------------------------------------
Repeat No. = 2/4
-----------------------------------------------------
Experimental Time (in sec) and Flow Profile :
-----------------------------------------------------
Baseline = 2.00
Absorb = 4.00
Pause = 1.00
Desorb = 5.00
Flush = 20.00
Wait = 5.00
Higher Flow (V) = 4.00
Medium Flow (V) = 3.00
Low Flow (V) = 1.00
-----------------------------------------------------
Total Profile Time = 37 in sec
-----------------------------------------------------
Acquired data point per second = 4
--------------------------------------------------
Total data point stored  = 128
-----------------------------------------------------
Acquired sensor responses from 24 sensors
-----------------------------------------------------

Data Points	 Sen-1	 Sen-2	 Sen-3	 Sen-4	 Sen-5	 Sen-6	 Sen-7	 Sen-8	 Sen-9	 Sen-10	 Sen-11	 Sen-12	 Sen-13	 Sen-14	 Sen-15	 Sen-16	 Sen-17	 Sen-18	 Sen-19	 Sen-20	 Sen-21	 Sen-22	 Sen-23	 Sen-24	Humidity (%r.h.)
0.000	313.180	307.737	297.137	304.896	314.660	315.353	315.711	295.848	286.060	310.960	228.764	276.033	106.627	112.142	122.002	113.861	104.025	103.667	103.667	123.028	133.079	107.845	189.444	143.297	36.134
1.000	312.798	307.451	297.495	305.207	314.899	315.687	315.687	295.920	285.893	311.008	229.193	276.678	106.460	111.879	121.858	113.718	104.049	103.691	103.548	122.981	132.960	107.725	189.373	142.628	35.773
2.000	313.013	307.809	297.710	304.992	315.019	315.591	315.759	295.777	285.988	310.960	228.883	276.749	106.532	111.903	121.787	113.813	104.120	103.619	103.643	122.981	133.031	107.749	189.468	142.485	44.436
3.000	313.037	307.737	297.734	305.159	314.875	315.448	315.663	296.015	285.941	311.127	228.668	276.797	106.221	111.999	121.667	113.670	104.025	103.619	103.548	123.004	133.031	107.797	189.420	142.318	47.233
4.000	312.631	307.666	297.734	304.634	314.780	315.520	315.591	295.872	286.012	311.485	229.146	277.251	106.412	111.951	121.691	113.741	103.977	103.548	103.571	122.981	133.079	107.821	189.396	142.103	39.879
5.000	313.514	308.191	297.854	304.944	315.162	315.448	315.997	296.087	286.060	311.032	228.644	277.466	106.532	111.975	121.476	113.598	104.073	103.500	103.786	123.004	133.079	107.678	189.373	141.888	34.013
6.000	313.204	307.618	297.734	305.230	314.804	315.496	315.639	295.872	285.869	311.318	228.931	277.609	106.293	111.951	121.524	113.718	104.144	103.595	103.643	122.957	133.079	107.701	189.373	141.650	40.194
7.000	313.156	307.713	297.854	305.350	314.756	315.472	315.591	295.872	285.678	311.509	228.764	277.346	106.556	111.664	121.405	113.670	104.120	103.571	103.548	122.909	133.031	107.725	189.396	141.602	47.549
8.000	313.371	307.689	298.235	305.302	314.851	315.639	315.830	295.896	285.893	311.079	228.883	277.609	106.197	111.664	121.238	113.718	104.025	103.619	103.619	122.885	132.912	107.606	189.396	141.363	43.353
9.000	312.894	307.642	297.686	305.469	314.875	315.233	315.639	295.824	285.821	311.151	229.193	277.680	106.269	111.497	121.166	113.718	104.025	103.619	103.619	122.861	133.031	107.606	189.325	141.315	34.870
10.000	311.318	305.947	297.567	304.968	314.708	315.353	315.639	295.896	286.323	310.578	228.143	274.935	107.391	113.216	121.476	113.789	104.025	103.571	103.595	123.100	132.649	107.892	189.755	143.583	36.765
11.000	294.082	253.998	295.275	303.392	314.565	315.353	315.639	294.344	287.278	304.466	226.233	274.314	123.410	161.465	123.267	115.150	104.192	103.786	103.643	124.150	131.718	113.670	191.903	145.016	39.563
12.000	263.929	277.251	290.286	300.480	314.159	314.422	315.544	290.930	288.065	286.418	224.562	297.090	155.902	142.581	129.068	118.373	104.526	104.359	103.762	128.209	131.026	132.983	193.574	122.837	35.096
13.000	231.318	298.832	283.124	295.013	313.491	313.896	315.305	285.750	287.970	270.495	223.106	309.241	188.561	118.946	136.063	123.935	105.243	105.075	103.977	133.079	130.811	149.647	195.150	110.805	45.293
14.000	262.163	310.841	275.723	287.397	313.180	312.942	314.875	280.808	288.065	252.231	222.127	315.210	155.377	107.057	143.297	131.121	105.672	105.768	104.192	137.615	131.241	166.168	196.535	102.831	51.519
15.000	285.583	318.886	267.510	278.110	312.058	311.557	314.207	275.198	287.110	229.671	221.077	320.462	132.315	99.752	152.154	139.931	106.412	107.009	104.670	143.034	131.933	187.606	197.299	98.439	38.931
16.000	302.509	323.422	259.226	268.823	311.032	309.981	313.801	269.563	286.251	235.806	220.241	324.281	117.132	95.813	161.441	149.910	107.248	108.704	105.266	149.671	132.578	183.452	198.015	95.693	29.230
17.000	311.963	326.669	250.154	259.728	310.077	308.262	313.156	262.473	285.153	256.911	219.931	325.785	106.197	92.590	170.226	159.626	108.418	110.662	105.959	156.547	133.461	161.823	198.421	93.377	39.788
18.000	318.552	328.292	244.067	249.390	309.265	305.541	312.297	255.621	284.317	271.879	219.286	327.600	99.680	90.346	177.460	169.677	109.540	113.073	107.152	163.565	134.726	146.042	198.779	92.351	53.505
19.000	323.422	329.939	241.082	239.555	307.475	302.628	310.769	248.101	283.076	284.031	219.381	328.841	96.004	88.985	180.802	178.844	111.115	115.962	108.322	171.038	135.848	134.153	199.519	91.563	46.331
20.000	326.788	331.276	242.372	230.817	306.138	299.143	308.740	240.605	281.429	292.482	219.381	329.414	92.733	88.078	176.099	188.155	112.691	119.232	110.041	178.844	137.161	126.156	199.423	90.942	30.449
21.000	328.674	332.375	246.931	223.249	304.514	295.586	306.902	233.920	280.665	298.283	219.358	330.560	90.608	86.788	169.534	195.914	114.219	123.124	112.428	185.768	138.260	119.423	199.590	90.155	32.208
22.000	330.321	332.207	251.897	221.864	302.366	291.026	303.798	228.191	278.993	303.153	218.785	331.181	88.555	86.669	161.751	196.654	116.391	127.421	115.341	191.760	140.002	114.959	199.567	88.364	49.083
23.000	331.873	333.043	256.743	227.880	299.740	285.988	300.265	224.156	277.680	306.830	218.928	331.372	87.696	87.123	156.332	189.946	118.779	131.909	118.421	195.866	141.411	110.829	199.590	88.674	52.602
24.000	331.372	333.688	261.518	234.851	297.304	281.309	296.588	224.180	276.153	310.554	218.976	331.467	87.361	85.475	151.175	182.760	121.548	136.803	122.360	194.267	142.819	107.678	199.949	89.056	36.404
25.000	333.258	333.902	265.553	240.032	294.368	276.463	292.458	226.926	274.601	312.751	219.214	331.658	86.383	85.451	146.806	178.343	124.389	141.602	126.466	191.617	144.538	106.293	199.734	88.436	28.238
26.000	333.138	333.568	267.128	240.342	293.127	275.030	290.262	226.806	273.622	312.464	218.928	332.088	86.741	85.356	144.705	178.152	125.917	143.583	129.116	191.426	145.087	106.603	200.116	88.125	41.864
27.000	332.661	333.735	268.227	239.268	292.649	275.126	289.235	226.233	273.932	312.010	218.976	331.706	85.786	85.523	143.536	179.250	126.466	143.106	129.952	192.500	144.944	106.174	199.949	88.722	54.678
28.000	333.210	334.117	269.134	238.528	292.673	276.057	288.949	225.684	274.028	311.223	218.952	331.993	86.192	85.810	142.915	180.277	126.299	142.676	130.143	193.073	144.538	107.224	200.354	87.887	43.804
29.000	332.995	334.237	269.587	237.191	293.150	276.797	288.734	224.968	274.601	311.724	218.904	332.064	86.239	85.308	142.318	181.542	126.132	142.318	130.310	193.527	144.156	107.463	199.877	88.125	29.140
30.000	333.902	334.332	270.566	240.891	291.837	274.672	287.325	227.451	274.434	312.369	218.976	332.160	85.308	86.024	141.912	177.698	126.848	143.870	131.432	191.426	144.586	106.054	200.116	88.531	34.329
31.000	332.733	334.690	272.357	245.213	289.689	270.805	284.604	227.809	273.717	312.369	218.976	332.947	86.788	85.141	140.146	173.067	129.426	147.522	134.726	190.853	145.398	106.221	200.092	89.056	51.700
32.000	330.489	334.117	273.503	246.120	288.256	270.542	283.482	224.514	275.651	307.952	219.095	330.512	88.770	86.573	138.379	172.590	130.644	148.358	135.753	193.574	143.297	110.924	199.853	90.441	51.158
33.000	328.292	333.234	274.386	243.923	288.925	272.548	285.988	229.050	278.397	299.620	219.692	328.626	91.038	86.764	137.758	174.547	129.665	145.326	132.912	190.065	140.337	120.378	199.376	92.160	34.509
34.000	324.759	332.804	274.267	239.125	291.193	276.535	289.164	238.433	280.975	286.896	220.957	325.069	94.738	87.719	138.451	179.632	127.875	141.602	129.331	180.850	137.519	132.649	198.063	95.311	29.772
35.000	319.101	331.157	272.882	231.724	293.556	280.665	292.840	247.146	282.837	269.134	221.817	321.488	99.370	88.603	139.358	186.269	125.344	137.854	125.869	172.494	135.801	148.907	196.845	98.248	44.616
36.000	312.034	330.369	271.664	223.464	295.968	285.105	296.517	254.762	283.935	249.008	222.103	315.687	106.866	90.441	141.220	194.434	123.052	133.891	122.694	165.069	134.535	169.629	195.890	104.049	52.828
37.000	301.673	328.316	269.587	221.100	298.116	288.638	299.596	260.253	285.487	228.406	223.010	310.196	118.015	91.754	143.392	197.370	120.617	130.047	119.352	158.958	133.652	191.664	195.054	109.516	41.774
38.000	285.630	326.096	266.150	230.172	300.503	292.339	302.557	264.717	285.774	232.512	223.822	303.130	135.108	94.118	146.687	187.821	118.468	126.538	116.487	153.897	133.103	185.983	194.840	116.487	31.125
39.000	262.903	322.563	263.022	240.199	302.342	295.872	304.992	268.752	285.941	249.390	224.061	296.063	156.117	96.242	150.936	177.746	116.415	122.694	114.219	150.053	132.649	169.223	194.004	122.742	37.171
40.000	237.621	319.387	258.391	249.796	304.108	299.143	306.925	272.118	286.299	262.545	224.777	289.092	181.399	99.990	155.210	169.152	114.744	119.901	112.500	146.902	132.482	156.881	193.670	130.047	48.406
41.000	221.220	314.899	254.117	258.438	306.042	302.127	308.620	274.744	286.466	271.975	224.801	282.025	198.922	104.335	160.605	160.701	113.192	116.893	110.495	144.085	132.387	147.069	193.288	137.328	45.654
42.000	234.517	309.599	248.722	264.669	306.854	304.299	309.838	276.511	286.394	278.564	225.278	275.365	184.311	110.184	166.884	153.348	111.784	114.147	109.158	141.626	132.554	140.193	192.954	144.299	36.901
43.000	248.364	302.604	243.088	270.853	307.833	306.114	310.817	278.325	286.633	283.935	225.660	268.274	170.131	116.224	173.162	147.379	110.686	112.333	108.012	139.501	132.411	134.869	192.691	150.316	35.592
44.000	261.017	294.034	238.027	276.033	309.337	308.215	311.915	280.259	286.490	287.994	225.923	261.781	159.316	125.774	179.632	142.485	109.683	110.757	107.439	138.451	132.578	131.241	192.357	156.642	42.992
45.000	270.232	284.079	234.350	279.925	309.766	309.408	312.536	281.763	286.442	291.002	226.305	255.120	149.504	134.941	184.693	138.236	108.991	109.038	106.556	136.875	132.387	128.089	192.166	162.706	45.022
46.000	277.991	273.932	232.560	283.816	310.936	310.936	312.870	282.837	286.203	293.150	226.233	249.367	141.721	144.825	188.012	135.204	108.227	107.940	106.006	135.490	132.506	125.607	191.808	169.271	40.781
47.000	283.529	264.240	233.897	286.347	311.056	311.557	313.347	283.840	286.370	295.060	226.639	243.470	135.633	155.019	186.627	132.196	107.630	107.081	105.577	134.511	132.649	123.840	191.736	175.359	37.848
48.000	288.949	253.759	237.549	288.543	311.748	312.273	313.753	285.033	286.227	296.517	226.782	238.027	130.906	164.520	182.879	129.904	107.129	106.412	105.266	133.437	132.530	122.097	191.617	179.990	40.239
49.000	291.790	240.987	242.133	290.477	311.987	312.894	314.135	285.750	286.323	297.901	226.639	233.180	127.707	176.863	178.009	127.898	106.603	105.911	105.028	132.482	132.506	120.904	191.354	185.123	43.398
50.000	294.678	228.549	247.528	292.315	312.488	313.204	314.255	287.182	286.490	299.477	226.973	228.668	124.843	190.137	172.231	126.251	106.365	105.505	104.789	131.432	132.602	119.590	191.306	190.089	41.548
51.000	296.588	227.379	251.873	294.153	312.727	313.658	314.278	287.731	286.299	300.671	227.236	224.443	122.766	192.572	167.123	124.676	106.221	105.266	104.574	130.548	132.625	118.325	191.306	194.458	39.427
52.000	298.713	239.984	256.361	295.084	312.989	314.326	315.066	288.877	286.156	301.172	227.140	221.100	120.975	179.489	162.897	123.148	105.744	104.861	104.526	129.975	132.769	117.490	191.068	197.585	39.788
53.000	300.074	251.515	260.133	296.612	313.276	313.873	314.732	289.498	286.466	302.246	227.427	220.026	119.304	168.101	158.815	122.121	105.457	104.622	104.383	129.140	132.888	117.060	191.139	199.614	40.871
54.000	301.291	261.447	263.834	297.925	313.658	314.398	314.732	289.856	286.323	302.843	227.212	219.835	118.206	158.170	155.544	121.309	105.457	104.526	104.168	128.734	132.936	116.248	190.996	200.235	40.510
55.000	302.079	268.418	266.508	298.188	313.467	314.207	314.923	291.455	286.227	303.225	227.737	220.886	116.869	151.008	152.584	120.545	105.314	104.383	104.264	127.349	132.840	115.508	190.829	199.041	40.646
56.000	303.703	273.837	269.205	298.570	313.849	314.684	315.114	291.790	286.227	304.180	227.451	222.628	116.511	145.469	149.838	119.853	105.290	104.455	104.144	126.776	132.888	114.983	190.829	197.227	41.277
57.000	304.299	277.943	271.258	299.167	313.682	314.756	315.353	292.243	286.418	304.466	227.857	224.395	115.436	141.196	147.904	119.376	105.123	104.288	104.144	126.466	132.840	114.553	190.805	195.126	40.555
58.000	304.586	281.691	273.908	299.835	313.992	314.637	315.281	292.816	286.036	304.729	227.379	226.926	114.935	137.973	145.851	118.994	104.980	104.216	104.240	126.514	132.960	114.123	190.709	192.810	39.337
59.000	304.992	284.699	275.317	300.384	313.801	314.732	315.162	292.912	285.845	305.135	227.880	228.788	114.028	134.989	143.846	118.612	104.932	104.240	104.025	125.917	132.840	113.694	190.423	190.399	40.149
60.000	305.851	286.872	276.797	300.456	314.087	314.708	315.329	293.031	286.036	305.421	227.713	230.769	113.574	132.792	142.223	118.134	104.813	103.953	103.977	125.678	133.007	113.479	190.423	188.465	42.405
61.000	306.567	288.901	278.397	300.981	314.040	315.162	315.520	293.294	286.108	305.756	227.546	232.321	113.431	130.763	140.790	117.776	104.693	103.977	103.834	125.416	133.031	113.169	190.351	186.985	41.774
62.000	307.021	290.095	279.423	301.363	314.302	315.019	315.424	293.676	286.060	305.970	228.119	234.040	112.787	129.235	139.596	117.633	104.789	103.906	103.882	125.248	132.983	112.930	190.423	185.290	39.247
63.000	306.806	291.623	280.617	301.220	314.087	314.851	315.472	293.676	285.917	306.472	228.095	235.878	112.381	127.707	138.427	117.490	104.861	104.049	103.882	125.034	133.007	112.667	190.137	183.595	39.021
64.000	307.666	292.912	281.715	301.602	314.087	315.066	315.544	294.058	285.917	306.567	228.215	237.525	112.070	126.466	137.352	117.155	104.670	103.977	103.882	125.010	133.031	112.476	190.280	181.924	42.360
65.000	307.618	293.938	282.956	301.745	314.302	315.162	315.615	294.153	286.012	306.591	227.761	238.886	111.855	125.368	136.445	116.917	104.670	103.977	103.834	124.867	133.079	112.166	190.256	180.516	43.488
66.000	308.095	294.822	283.792	302.031	314.374	315.424	315.830	293.938	286.084	306.878	227.976	240.366	111.641	124.413	135.801	116.702	104.502	103.929	103.786	124.890	133.031	111.999	190.113	179.274	39.833
67.000	308.453	295.657	284.079	302.533	314.446	314.971	315.544	294.296	286.132	307.140	228.095	241.512	111.187	123.768	134.631	116.439	104.502	103.643	103.834	124.795	133.151	111.855	190.160	178.152	38.480
68.000	308.334	296.731	284.890	302.294	314.064	314.995	315.544	294.583	286.156	307.164	228.191	243.159	110.901	122.933	134.201	116.415	104.502	104.025	103.882	124.628	132.936	111.521	189.946	176.815	40.600
69.000	308.382	297.113	285.606	302.700	314.469	315.114	315.210	294.511	286.179	307.451	228.358	244.114	110.924	122.049	133.365	116.296	104.526	103.810	103.715	124.413	132.912	111.474	190.017	175.311	44.300
70.000	309.265	297.758	286.084	302.557	314.469	315.663	315.806	294.535	286.060	307.427	228.000	245.022	110.638	121.453	132.792	115.962	104.431	103.929	103.953	124.437	133.079	111.259	189.993	174.046	41.728
71.000	308.931	298.403	287.015	302.867	314.446	315.162	315.424	294.559	285.988	307.666	228.453	246.072	110.662	120.951	132.124	115.962	104.407	103.691	103.667	124.246	133.055	111.235	189.898	173.401	38.435
72.000	309.050	299.023	287.182	302.724	314.255	315.138	315.544	294.535	285.893	307.833	228.215	247.027	110.328	120.498	131.766	115.914	104.502	103.810	103.786	124.270	132.960	111.044	189.922	172.590	38.886
73.000	309.146	299.238	288.089	302.867	314.446	315.162	315.353	294.511	286.323	307.833	228.262	247.839	110.113	120.140	131.288	115.914	104.502	103.906	103.810	124.222	133.007	110.901	189.946	171.587	43.488
74.000	309.695	299.644	288.304	302.962	314.732	315.257	315.520	294.989	286.227	308.047	228.239	248.579	109.993	119.519	130.835	115.723	104.407	103.834	103.762	124.103	133.031	110.733	190.017	170.584	43.984
75.000	309.814	300.408	289.187	302.939	314.207	315.186	315.496	294.511	285.750	308.095	227.976	249.486	109.993	119.280	130.477	115.604	104.383	103.667	103.715	124.198	133.079	110.614	189.922	169.868	39.472
76.000	309.647	300.527	288.949	303.130	314.469	315.353	315.639	294.893	286.108	308.334	228.262	249.892	109.635	119.018	130.047	115.651	104.335	103.691	103.667	124.055	133.031	110.710	190.017	169.152	37.532
77.000	309.957	300.885	289.617	303.297	314.422	315.424	315.878	295.180	286.012	308.143	228.143	250.799	109.826	118.779	129.761	115.532	104.335	103.691	103.715	124.055	133.079	110.590	190.089	168.531	41.503
78.000	310.268	301.076	289.760	303.368	314.446	315.138	315.663	295.036	285.988	308.310	228.215	251.969	109.516	118.373	129.307	115.460	104.431	103.619	103.715	123.840	133.007	110.471	189.898	167.194	44.616
79.000	310.053	301.602	290.310	303.607	314.613	315.377	315.639	295.132	286.227	308.597	228.382	253.210	109.444	117.872	128.925	115.460	104.359	103.858	103.786	123.959	133.007	110.232	189.898	165.953	41.593
80.000	310.029	301.697	290.644	303.464	314.756	315.257	315.400	295.227	286.108	308.644	228.334	254.428	109.158	117.657	128.567	115.341	104.407	103.739	103.691	123.888	132.983	110.208	189.826	165.260	37.217
81.000	310.172	302.198	291.050	303.344	314.350	315.114	315.591	294.774	285.988	309.193	228.406	254.905	109.158	117.418	128.376	115.102	104.335	103.786	103.691	123.768	133.103	110.041	189.898	164.473	38.841
82.000	309.742	302.246	291.026	303.464	314.493	315.233	315.424	294.965	286.036	308.859	228.525	255.407	108.967	117.155	128.113	115.174	104.288	103.667	103.715	123.792	133.174	109.993	189.826	163.947	44.345
83.000	310.387	302.676	291.312	303.464	314.374	315.233	315.663	294.941	285.845	309.074	228.501	255.574	108.967	116.964	127.946	115.078	104.335	103.595	103.595	123.792	133.031	110.137	189.826	163.470	43.984
84.000	310.769	302.628	291.551	303.512	314.350	315.329	315.687	295.156	285.988	308.764	228.191	256.767	108.752	116.797	127.731	115.126	104.335	103.643	103.691	123.721	132.983	109.874	189.874	162.778	38.525
85.000	310.626	303.130	291.790	303.488	314.422	315.233	315.782	295.371	286.299	309.193	228.382	257.269	108.752	116.582	127.421	114.983	104.264	103.691	103.715	123.792	133.174	109.969	189.850	162.133	37.217
86.000	310.793	303.058	292.243	303.822	314.469	315.329	315.663	295.132	285.893	309.074	228.262	257.842	108.728	116.344	127.158	115.031	104.335	103.667	103.643	123.577	133.031	109.850	189.898	161.560	42.811
87.000	310.530	303.177	292.577	303.893	314.780	315.353	315.544	295.108	286.132	309.098	228.119	258.295	108.489	116.248	126.967	114.983	104.359	103.667	103.571	123.744	133.103	109.659	189.874	160.963	45.203
88.000	311.247	303.321	292.577	303.703	314.732	315.568	315.544	295.418	285.869	309.265	228.095	258.486	108.442	116.057	126.896	114.816	104.144	103.524	103.739	123.649	133.174	109.611	189.874	160.199	40.510
89.000	311.008	303.416	292.912	303.893	314.541	315.281	315.711	295.156	286.012	309.289	228.692	259.298	108.442	115.962	126.585	114.959	104.311	103.571	103.571	123.577	133.127	109.874	189.826	159.817	36.224
