-----------------------------------------------------
BloodHound 307 VOC Analyser V2017.1
RoboScientific Ltd 
Espace North
Wisbech Road
Littleport
Cambridgeshire, UK
CB6 1RA 
-----------------------------------------------------
Date = 06/04/2022
Time = 11:56:31
Data is protected by RoboScientific Limited
-----------------------------------------------------
Name of the experiment = "32b_Day 29"
-----------------------------------------------------
Repeat No. = 2/4
-----------------------------------------------------
Experimental Time (in sec) and Flow Profile :
-----------------------------------------------------
Baseline = 2.00
Absorb = 4.00
Pause = 1.00
Desorb = 5.00
Flush = 20.00
Wait = 5.00
Higher Flow (V) = 4.00
Medium Flow (V) = 3.00
Low Flow (V) = 1.00
-----------------------------------------------------
Total Profile Time = 37 in sec
-----------------------------------------------------
Acquired data point per second = 4
--------------------------------------------------
Total data point stored  = 128
-----------------------------------------------------
Acquired sensor responses from 24 sensors
-----------------------------------------------------

Data Points	 Sen-1	 Sen-2	 Sen-3	 Sen-4	 Sen-5	 Sen-6	 Sen-7	 Sen-8	 Sen-9	 Sen-10	 Sen-11	 Sen-12	 Sen-13	 Sen-14	 Sen-15	 Sen-16	 Sen-17	 Sen-18	 Sen-19	 Sen-20	 Sen-21	 Sen-22	 Sen-23	 Sen-24	Humidity (%r.h.)
0.000	313.013	308.286	298.092	305.421	314.899	315.353	315.591	296.182	285.869	311.438	229.432	279.113	106.150	111.378	121.309	113.574	103.953	103.548	103.500	122.575	133.055	107.630	189.277	140.169	46.285
1.000	313.276	308.238	297.901	305.111	315.090	315.377	315.591	296.039	286.490	311.485	229.193	279.471	106.126	111.450	121.214	113.407	103.929	103.524	103.452	122.837	133.127	107.558	189.396	140.026	37.487
2.000	312.918	308.238	298.068	305.087	314.828	315.496	315.568	296.182	285.965	311.366	229.098	279.137	106.150	111.521	121.262	113.503	104.049	103.548	103.595	122.742	133.103	107.534	189.396	140.002	34.735
3.000	313.514	307.976	297.997	305.326	314.708	315.544	315.973	296.469	285.941	311.509	228.979	278.850	106.030	111.474	121.214	113.407	103.953	103.428	103.571	122.694	133.055	107.558	189.325	140.002	42.676
4.000	313.491	308.334	298.259	305.159	314.613	315.353	315.830	296.278	286.036	311.294	228.740	279.232	106.365	111.330	121.095	113.312	103.977	103.571	103.595	122.718	133.079	107.415	189.420	139.955	47.910
5.000	313.061	308.286	297.997	305.207	314.780	315.281	315.591	296.206	285.917	311.628	228.979	279.161	106.245	111.283	121.095	113.336	103.953	103.643	103.619	122.694	133.079	107.391	189.396	140.002	41.367
6.000	313.276	308.262	297.949	305.183	314.660	315.520	315.759	296.493	286.132	311.605	228.716	279.184	106.102	111.545	121.047	113.407	104.001	103.571	103.619	122.694	133.055	107.463	189.277	139.787	33.833
7.000	313.300	308.334	298.212	305.230	314.947	315.400	315.902	296.612	286.275	311.294	229.002	279.137	106.078	111.426	121.142	113.431	104.001	103.428	103.524	122.742	133.222	107.606	189.396	139.811	38.344
8.000	312.918	307.856	298.068	305.398	315.257	315.639	315.424	296.206	285.869	311.414	228.883	279.447	106.150	111.402	120.904	113.288	104.025	103.548	103.643	122.694	133.031	107.415	189.301	139.787	47.098
9.000	313.061	307.928	298.188	305.374	314.780	315.544	315.759	296.182	285.893	311.867	229.122	279.829	106.030	111.259	120.904	113.455	103.977	103.643	103.667	122.766	132.888	107.367	189.301	139.429	45.067
10.000	312.130	306.114	298.283	304.992	315.114	315.305	315.591	295.920	286.203	310.745	228.501	275.866	107.343	113.503	121.047	113.550	103.929	103.595	103.524	122.694	132.697	107.916	189.611	143.846	36.404
11.000	295.777	254.881	295.633	303.798	314.780	315.138	315.377	294.726	287.397	304.944	226.281	273.741	123.100	162.252	123.100	114.744	104.288	103.929	103.715	124.031	131.647	113.383	191.855	143.488	42.315
12.000	263.165	277.036	290.023	300.169	314.087	314.469	315.377	290.500	287.803	286.251	224.705	296.684	154.374	141.196	128.686	117.872	104.646	104.192	103.643	127.731	130.859	131.766	193.718	121.811	38.615
13.000	230.626	299.549	283.219	295.323	313.658	314.255	315.210	286.108	287.970	271.449	222.795	308.358	189.731	119.209	136.087	123.577	105.075	104.908	103.906	132.673	130.859	148.215	195.293	110.566	31.938
14.000	263.261	311.796	275.365	287.612	312.918	313.085	315.042	281.142	288.018	254.022	221.745	316.475	157.024	106.460	144.061	131.241	105.648	105.672	104.168	137.830	131.265	165.977	196.344	103.404	43.037
15.000	285.487	318.576	267.200	279.089	312.154	311.581	314.350	275.484	287.182	231.796	221.053	320.724	132.052	99.656	152.106	139.859	106.484	106.938	104.550	142.939	131.861	186.365	197.275	98.844	52.873
16.000	302.079	323.541	258.319	269.277	311.485	310.315	314.016	269.301	286.012	234.804	220.145	323.828	116.678	95.836	161.083	148.955	107.152	108.370	105.075	149.074	132.673	183.500	197.991	94.953	42.135
17.000	313.085	326.000	250.035	259.513	310.244	308.286	312.918	262.807	285.224	255.263	219.787	326.191	106.174	92.924	170.847	158.838	108.322	110.375	105.863	155.830	133.652	163.231	198.540	93.664	29.276
18.000	319.459	328.889	243.518	250.560	309.528	306.042	312.058	256.361	283.935	272.190	219.429	327.480	99.895	90.584	178.653	168.364	109.588	112.667	106.938	162.849	134.559	146.997	198.946	91.706	35.863
19.000	323.685	330.083	241.059	240.772	307.785	303.034	310.674	248.937	283.004	282.813	218.952	329.104	95.502	88.865	180.850	178.653	110.901	115.556	108.083	170.680	135.944	134.798	199.376	91.109	51.925
20.000	326.645	330.823	242.634	231.700	306.448	299.907	309.026	241.536	281.858	291.790	219.071	329.557	92.255	88.078	175.789	187.009	112.070	118.659	110.041	177.579	137.137	126.394	199.567	89.558	50.121
21.000	328.364	332.016	247.337	223.488	304.347	296.349	306.997	234.111	280.689	298.140	219.047	330.560	90.393	86.908	167.958	195.126	114.219	122.503	112.166	184.908	138.212	119.949	199.805	88.937	33.607
22.000	329.987	332.709	252.709	221.411	303.058	292.243	304.490	229.122	278.874	303.297	219.071	330.727	89.056	86.311	161.035	197.179	116.224	126.657	114.935	191.426	139.787	115.389	199.901	89.080	29.456
23.000	331.467	333.043	258.176	227.713	300.169	287.278	300.551	224.085	277.513	306.949	219.191	330.560	87.910	86.287	155.019	191.068	118.397	131.265	118.230	195.747	141.220	111.354	200.139	88.388	44.751
24.000	332.876	333.234	263.070	234.302	297.686	282.527	296.946	223.989	275.890	310.124	218.832	331.348	86.693	86.406	149.361	183.738	121.214	136.087	122.217	194.505	142.939	108.179	199.901	87.433	54.768
25.000	333.234	334.213	265.600	238.934	294.607	277.275	292.458	226.305	274.696	311.557	218.785	331.587	86.430	85.905	145.493	179.226	123.983	140.647	125.941	192.118	144.395	106.794	200.259	88.459	41.413
26.000	333.138	333.855	268.370	239.841	292.983	275.747	289.832	226.949	273.479	312.082	218.928	332.542	85.762	85.857	143.249	178.916	125.702	142.748	129.211	192.285	144.968	106.651	200.235	88.340	28.238
27.000	332.971	334.523	269.468	238.456	293.007	276.367	289.450	225.517	274.147	311.461	218.689	332.136	86.383	85.237	141.960	179.704	126.084	142.199	129.713	192.667	144.944	106.723	200.259	88.841	37.081
28.000	333.138	335.168	269.301	237.692	293.413	276.439	289.283	225.398	274.219	311.342	218.522	331.443	86.335	85.165	140.957	181.065	126.299	141.960	129.928	193.097	144.443	107.272	200.521	89.032	53.911
29.000	333.210	334.332	270.304	236.069	292.792	277.060	289.116	224.849	274.625	310.459	218.522	331.229	85.977	85.284	140.360	182.020	126.132	141.530	129.952	193.694	144.156	107.200	200.163	88.436	47.504
30.000	333.377	335.430	270.996	239.578	291.885	275.221	287.970	226.376	274.004	312.440	218.880	332.709	85.857	84.807	140.193	178.606	126.967	143.010	131.121	191.712	144.323	106.150	200.187	88.579	30.900
31.000	333.282	333.688	272.476	244.711	289.641	271.784	284.723	227.403	273.526	312.225	218.522	332.231	86.383	86.144	138.498	173.783	129.164	147.045	134.273	191.330	145.374	106.174	199.949	88.913	31.486
32.000	331.061	333.902	274.338	245.356	288.113	270.900	283.816	224.371	275.771	307.952	218.785	330.321	88.674	85.595	136.827	173.162	130.692	147.809	135.442	193.479	143.082	111.187	199.829	89.677	48.902
33.000	328.794	333.616	274.816	243.470	289.450	273.550	286.347	229.838	278.301	299.453	219.167	328.507	91.229	86.884	136.636	174.905	129.761	145.040	132.888	190.160	140.384	119.232	199.065	91.587	53.053
34.000	323.995	332.804	274.481	238.528	290.859	276.749	289.569	238.265	281.070	287.087	220.480	325.021	94.953	87.743	136.732	179.799	127.612	141.268	129.379	180.874	137.758	132.554	197.967	94.690	37.984
35.000	320.199	331.778	274.028	231.796	293.509	281.238	293.079	246.955	282.980	270.495	221.148	321.655	100.348	88.459	138.212	187.200	125.272	137.448	126.108	171.921	135.920	149.671	196.964	98.606	29.185
36.000	312.440	330.083	272.070	223.058	295.609	284.723	296.230	254.380	284.628	249.916	222.509	315.997	106.245	89.391	140.384	194.362	122.885	133.413	122.312	164.544	134.488	168.436	196.296	102.998	40.510
37.000	301.793	328.388	270.160	221.960	298.068	288.805	299.596	260.324	285.129	228.000	223.034	310.721	116.368	90.990	142.485	197.394	120.569	129.832	119.399	158.982	133.652	190.518	195.150	109.659	52.061
38.000	287.731	326.048	267.415	230.865	299.978	292.315	302.676	264.837	286.060	232.178	223.488	304.180	132.530	93.473	145.183	187.940	118.349	126.180	116.702	153.825	133.103	187.391	194.696	115.842	43.894
39.000	265.266	323.804	263.714	240.271	302.222	295.896	304.586	268.609	285.774	248.221	224.252	296.922	154.923	96.171	148.931	177.675	116.606	122.813	114.004	149.981	132.625	170.489	194.195	122.813	32.434
40.000	240.390	320.438	259.274	249.963	303.726	298.952	306.711	271.831	286.394	261.661	225.016	290.310	178.248	99.203	153.682	168.436	114.864	119.590	112.094	146.615	132.482	157.597	193.670	129.379	35.953
41.000	220.909	315.400	254.619	258.009	305.207	302.103	308.859	274.577	286.275	271.235	224.992	283.219	198.612	103.858	159.149	160.414	113.407	116.845	110.399	143.870	132.506	148.262	193.383	136.350	46.872
42.000	233.133	310.578	249.772	264.884	306.711	304.323	309.790	276.606	286.538	278.468	225.660	276.391	186.723	109.110	165.427	153.586	111.951	114.171	109.158	141.435	132.363	140.575	192.858	143.082	46.015
43.000	246.788	304.275	244.472	270.900	307.689	306.352	310.721	278.564	286.585	283.410	225.827	269.587	172.518	115.532	171.849	147.546	110.924	112.333	107.988	139.668	132.315	135.371	192.667	149.504	38.209
44.000	259.441	295.705	239.077	275.866	308.788	308.071	311.867	280.235	286.681	287.898	225.589	262.736	160.247	123.912	178.486	142.461	109.874	110.447	107.224	137.925	132.387	131.121	192.476	155.902	35.953
45.000	268.871	285.535	234.804	280.116	309.623	309.599	312.536	281.643	286.251	291.073	226.114	256.027	150.363	133.031	183.858	138.331	108.967	108.967	106.532	136.445	132.482	128.137	192.142	161.823	42.135
46.000	277.394	275.771	232.751	283.649	310.387	310.650	312.965	282.956	286.394	293.413	226.138	249.892	142.533	143.321	187.821	135.299	108.394	107.892	106.054	135.395	132.625	125.702	191.832	168.746	44.571
47.000	284.055	266.006	233.658	286.394	311.175	311.867	313.538	284.246	286.394	295.371	226.353	243.876	136.111	153.348	187.534	132.172	107.725	107.129	105.625	134.225	132.578	123.864	191.712	174.690	40.961
48.000	288.113	255.526	236.952	288.758	311.605	312.464	313.825	284.914	286.203	296.684	226.949	238.433	131.121	163.756	183.619	129.737	107.224	106.365	105.171	133.198	132.625	122.264	191.378	180.157	38.570
49.000	291.479	243.804	241.560	290.715	311.915	312.942	313.992	285.941	286.466	298.450	227.069	233.634	127.373	174.786	178.582	127.731	106.723	105.815	104.908	131.885	132.506	120.880	191.330	184.789	39.608
50.000	294.702	229.456	246.406	292.625	312.273	313.300	314.398	287.325	286.323	299.501	226.973	228.430	124.843	188.513	173.377	125.965	106.317	105.410	104.932	131.336	132.673	119.399	191.282	189.659	42.676
51.000	296.755	226.185	250.942	294.225	312.655	313.634	314.517	288.280	286.585	300.623	227.164	224.443	122.885	194.768	168.077	124.341	105.959	105.123	104.741	130.596	132.888	118.492	191.115	194.147	41.367
52.000	298.689	237.812	255.263	295.323	313.276	314.064	314.637	288.877	286.418	301.363	227.164	221.793	120.999	181.900	163.565	123.148	105.696	104.837	104.407	129.617	132.816	117.466	190.996	197.203	39.924
53.000	299.859	249.892	259.441	296.875	313.109	314.087	314.828	289.569	286.227	302.151	227.427	219.931	119.614	169.462	159.650	122.026	105.672	104.717	104.359	129.020	132.769	116.845	191.020	199.519	40.104
54.000	301.267	260.515	262.521	297.448	313.300	314.493	315.138	290.668	286.347	302.939	227.594	219.859	118.445	159.555	156.618	121.285	105.457	104.670	104.383	128.400	132.816	116.057	190.853	200.307	40.691
55.000	302.533	268.250	265.887	298.092	313.825	314.517	315.257	291.790	286.156	303.535	227.618	220.575	117.251	151.772	153.395	120.593	105.219	104.359	104.240	127.015	132.912	115.580	190.686	199.376	40.239
56.000	303.106	273.622	268.513	298.928	313.610	314.899	315.305	291.957	286.299	304.299	227.928	222.246	116.344	146.042	150.698	119.805	105.123	104.383	104.168	126.609	132.745	115.055	190.686	197.394	40.600
57.000	303.965	277.967	270.877	299.095	313.729	314.565	315.138	292.745	286.323	304.538	227.880	224.443	115.460	141.578	148.525	119.352	105.028	104.240	104.049	126.347	132.769	114.505	190.495	195.365	41.638
58.000	304.634	281.811	273.049	299.668	313.849	315.114	315.186	292.864	285.988	304.586	227.833	226.305	114.744	137.591	146.162	118.922	104.861	104.001	104.001	125.917	132.983	114.052	190.375	193.145	40.961
59.000	305.183	284.341	274.338	300.336	313.920	315.066	315.329	293.031	286.132	305.159	227.642	228.382	114.458	135.060	144.323	118.492	105.028	104.192	103.977	125.678	132.960	113.765	190.256	190.996	39.202
60.000	305.254	286.800	276.415	300.480	313.849	314.947	315.210	293.222	286.442	305.708	227.928	230.339	113.694	132.697	142.915	118.134	104.765	103.882	104.025	125.487	132.936	113.431	190.160	188.991	39.472
61.000	306.090	288.471	277.609	300.838	314.207	315.257	315.448	293.652	285.869	305.612	228.215	231.963	113.025	130.668	141.363	117.848	104.813	104.073	103.929	125.296	132.816	113.216	190.160	187.439	42.135
62.000	306.925	290.357	279.041	301.172	313.968	315.090	315.568	293.771	286.012	306.018	228.262	233.777	112.787	128.973	139.907	117.394	104.956	104.097	103.906	125.081	132.936	112.882	190.113	185.577	42.631
63.000	307.355	291.312	279.972	301.435	314.398	315.448	315.568	294.034	286.156	306.257	228.191	235.305	112.596	127.588	138.856	117.275	104.813	103.977	103.906	125.081	133.055	112.619	190.041	184.049	39.788
64.000	307.260	292.888	281.142	301.745	314.422	315.329	315.663	294.034	285.845	306.329	228.071	236.666	112.094	126.514	137.854	116.917	104.741	104.097	103.906	124.867	133.031	112.357	190.017	182.282	38.976
65.000	307.713	294.105	282.455	301.936	314.302	315.305	315.520	294.010	285.845	306.472	228.358	238.385	111.688	125.272	136.899	116.845	104.598	103.858	103.834	124.652	132.888	112.142	189.993	180.778	41.007
66.000	307.618	295.180	283.338	302.127	314.398	315.305	315.615	294.272	286.203	307.212	227.976	239.937	111.617	124.126	136.039	116.606	104.479	103.906	103.739	124.628	133.007	111.855	189.993	179.155	43.939
67.000	308.692	296.230	283.959	302.198	314.350	315.305	315.782	294.559	285.988	307.069	228.048	241.393	111.402	123.386	135.108	116.248	104.598	103.906	103.906	124.556	133.103	111.688	189.922	177.889	41.413
68.000	308.692	296.564	284.580	302.795	314.660	315.186	315.663	294.511	286.012	307.284	228.143	242.754	111.163	122.599	134.273	116.153	104.526	103.882	103.858	124.246	133.103	111.688	189.802	176.624	38.751
69.000	308.549	297.472	285.702	302.843	314.756	315.233	315.663	294.440	285.821	307.427	228.525	243.828	110.710	121.930	133.819	116.057	104.502	103.762	103.715	124.150	132.936	111.330	189.922	175.383	39.157
70.000	309.217	298.140	286.347	302.819	314.207	314.995	315.663	294.774	285.965	307.642	228.692	245.284	110.375	121.262	133.198	115.938	104.407	103.715	103.762	124.365	132.983	111.259	189.755	174.237	43.849
71.000	308.907	298.928	286.872	303.010	314.541	315.162	315.544	294.869	286.036	307.689	228.167	246.072	110.519	120.713	132.458	116.057	104.526	103.810	103.667	124.103	133.127	111.187	189.850	173.210	43.623
72.000	309.146	299.978	287.349	303.225	314.493	315.162	315.520	294.917	286.012	307.666	228.358	247.027	110.208	120.354	132.220	115.842	104.455	103.858	103.834	124.126	133.055	111.068	189.922	172.088	39.337
73.000	309.886	299.262	287.469	302.891	314.398	315.448	315.926	295.275	285.821	308.095	228.549	248.817	110.184	119.710	131.336	115.675	104.359	103.834	103.691	123.959	132.912	110.948	189.683	170.823	38.074
74.000	309.575	300.384	288.447	303.297	314.422	315.114	315.615	294.726	286.012	308.191	228.334	249.176	110.089	119.209	130.978	115.699	104.479	103.786	103.643	123.935	133.079	110.948	189.874	169.940	42.360
75.000	309.742	300.885	289.044	303.368	314.374	315.448	315.568	295.084	285.941	308.024	228.334	250.178	109.516	118.922	130.644	115.532	104.359	103.715	103.691	123.912	133.127	110.853	189.826	168.865	44.481
76.000	310.029	300.933	289.140	303.535	314.350	315.353	315.544	295.132	286.251	308.286	228.358	251.133	109.444	118.636	130.262	115.389	104.240	103.643	103.715	123.744	133.103	110.590	189.659	168.006	40.736
77.000	310.029	301.267	289.737	303.249	314.350	315.186	315.544	295.084	286.036	308.382	228.310	252.494	109.492	118.134	129.856	115.389	104.407	103.739	103.548	123.792	132.960	110.471	189.683	167.027	37.126
78.000	309.886	301.482	289.546	303.177	314.660	315.591	315.520	295.132	286.084	308.692	228.597	252.828	109.373	117.895	129.426	115.150	104.240	103.571	103.715	123.768	133.079	110.328	189.659	166.263	39.292
79.000	310.172	302.079	290.023	303.512	314.732	315.424	315.472	294.941	285.893	308.668	228.644	253.544	109.468	117.561	129.164	115.126	104.240	103.643	103.715	123.864	133.151	110.328	189.683	165.523	44.120
80.000	310.363	301.960	290.142	303.679	314.875	315.377	315.878	295.395	285.845	308.716	228.597	254.595	109.206	117.370	128.758	115.007	104.335	103.739	103.643	123.673	133.079	110.184	189.659	164.831	43.759
81.000	310.363	302.437	290.739	303.512	314.493	315.329	315.663	295.156	286.108	308.907	228.716	255.025	109.182	117.275	128.615	115.055	104.168	103.762	103.762	123.744	132.960	110.137	189.683	164.234	38.344
82.000	310.292	302.819	291.026	303.583	314.374	315.186	315.639	295.442	286.203	309.170	228.788	256.290	108.991	116.941	128.352	115.031	104.311	103.524	103.571	123.625	133.103	109.969	189.731	163.470	37.352
83.000	310.411	302.939	291.479	303.846	314.398	315.257	315.520	295.418	286.203	309.098	228.692	256.767	108.752	116.630	128.066	115.007	104.311	103.691	103.595	123.553	133.031	109.850	189.611	162.491	43.127
84.000	310.674	303.368	291.981	304.061	314.469	315.329	315.806	295.299	285.869	309.122	228.835	257.746	108.752	116.272	127.803	114.935	104.359	103.643	103.667	123.506	133.079	109.826	189.659	161.465	45.022
85.000	311.247	303.297	291.623	303.750	314.995	315.496	315.639	295.371	286.060	309.313	228.692	258.749	108.561	116.081	127.516	114.840	104.359	103.762	103.715	123.410	133.055	109.659	189.683	160.462	40.330
86.000	310.697	303.535	291.814	303.846	314.947	315.639	315.759	295.538	285.917	309.432	228.406	259.608	108.704	115.747	127.254	114.840	104.359	103.715	103.595	123.362	133.127	109.611	189.611	159.817	36.314
87.000	311.223	303.941	292.339	304.299	314.589	315.329	315.759	295.538	285.869	309.361	228.549	259.942	108.489	115.556	126.991	114.792	104.240	103.500	103.548	123.458	133.079	109.659	189.635	159.101	39.518
88.000	310.745	304.275	292.363	304.180	314.684	315.281	315.472	295.466	285.821	309.456	228.549	260.444	108.585	115.389	126.872	114.792	104.335	103.619	103.667	123.458	133.222	109.588	189.635	158.624	45.203
89.000	310.697	304.132	292.673	303.965	314.469	315.162	315.544	295.418	286.299	309.552	228.621	261.256	108.465	115.293	126.490	114.696	104.264	103.667	103.595	123.315	133.055	109.397	189.516	158.027	43.533
