-----------------------------------------------------
BloodHound 307 VOC Analyser V2017.1
RoboScientific Ltd 
Espace North
Wisbech Road
Littleport
Cambridgeshire, UK
CB6 1RA 
-----------------------------------------------------
Date = 03/03/2021
Time = 10:57:25
Data is protected by RoboScientific Limited
-----------------------------------------------------
Name of the experiment = "1114N"
-----------------------------------------------------
Repeat No. = 3/4
-----------------------------------------------------
Experimental Time (in sec) and Flow Profile :
-----------------------------------------------------
Baseline = 2.00
Absorb = 4.00
Pause = 1.00
Desorb = 5.00
Flush = 18.00
Wait = 5.00
Higher Flow (V) = 4.00
Medium Flow (V) = 3.00
Low Flow (V) = 1.00
-----------------------------------------------------
Total Profile Time = 35 in sec
-----------------------------------------------------
Acquired data point per second = 4
--------------------------------------------------
Total data point stored  = 120
-----------------------------------------------------
Acquired sensor responses from 24 sensors
-----------------------------------------------------

Data Points	 Sen-1	 Sen-2	 Sen-3	 Sen-4	 Sen-5	 Sen-6	 Sen-7	 Sen-8	 Sen-9	 Sen-10	 Sen-11	 Sen-12	 Sen-13	 Sen-14	 Sen-15	 Sen-16	 Sen-17	 Sen-18	 Sen-19	 Sen-20	 Sen-21	 Sen-22	 Sen-23	 Sen-24	Humidity (%r.h.)
0.000	313.968	301.745	289.450	282.169	227.618	298.259	303.607	305.326	293.150	225.230	298.331	302.270	106.174	118.230	129.928	136.708	191.521	120.975	116.153	114.147	127.158	193.861	120.545	117.179	30.900
1.000	313.395	301.482	289.832	282.193	227.761	298.283	303.583	305.039	293.007	225.159	298.021	302.127	106.293	118.397	129.880	137.066	191.593	120.999	116.057	113.909	126.943	193.813	120.498	117.251	31.171
2.000	313.347	301.578	289.522	282.025	227.737	298.546	303.464	304.992	292.983	225.135	298.570	302.127	106.078	118.277	129.928	136.875	191.569	120.975	116.129	114.004	126.896	193.861	120.522	117.203	46.511
3.000	313.634	301.315	290.071	281.978	227.833	298.092	303.249	304.968	293.246	225.230	298.235	302.389	106.269	118.158	129.904	136.946	191.450	121.023	116.153	114.028	126.896	193.932	120.665	117.179	49.624
4.000	313.920	301.602	289.283	282.121	227.594	298.116	303.583	305.016	293.127	225.398	298.474	301.888	106.197	118.397	130.023	136.923	191.545	121.095	116.105	113.980	126.824	193.741	120.522	117.251	35.322
5.000	313.992	300.933	289.713	282.312	227.809	298.641	303.488	305.254	293.294	225.207	298.140	301.864	106.126	118.254	130.023	136.851	191.426	120.975	116.009	113.956	126.800	193.837	120.545	117.060	28.734
6.000	313.610	301.244	289.808	281.930	227.857	298.140	303.249	305.302	293.485	225.469	298.617	302.198	106.006	118.301	129.928	136.827	191.569	120.975	116.009	113.956	126.538	193.837	120.665	117.179	41.728
7.000	313.634	301.339	289.641	282.479	227.546	298.713	303.225	304.825	293.031	225.087	298.068	301.888	106.102	118.325	130.119	136.923	191.450	120.880	115.986	113.837	126.848	193.861	120.593	117.179	51.294
8.000	313.443	301.530	289.665	282.073	227.761	298.474	303.297	305.039	293.174	225.493	298.546	302.127	106.221	118.468	129.928	136.946	191.545	120.832	115.962	113.861	126.824	193.837	120.593	117.203	39.247
9.000	314.064	301.220	289.975	282.336	227.904	298.403	303.464	305.183	293.031	224.968	297.877	302.007	106.484	118.397	129.928	136.923	191.497	120.975	116.105	113.765	126.585	193.932	120.569	117.203	28.193
10.000	313.395	301.912	289.689	282.479	227.761	298.164	303.297	304.968	293.127	225.565	298.450	302.748	106.174	117.943	129.975	136.755	191.426	120.975	116.057	113.789	126.848	193.336	120.235	116.511	39.247
11.000	310.769	302.007	289.760	282.097	228.262	298.474	303.273	305.589	292.076	226.878	298.808	303.106	108.394	117.728	129.737	136.564	190.590	120.641	115.986	113.455	127.731	191.879	119.399	115.795	51.474
12.000	306.305	300.981	290.524	283.171	229.313	298.570	302.939	305.398	289.999	228.095	299.238	302.700	113.885	118.659	129.689	136.159	189.420	120.378	116.105	113.240	129.617	191.282	119.590	116.678	41.322
13.000	297.710	299.763	290.333	283.124	230.435	298.259	302.580	305.612	287.110	228.406	298.594	301.458	122.145	120.378	129.570	135.824	188.632	120.426	116.081	113.336	132.076	190.948	120.665	118.206	28.283
14.000	287.588	297.137	290.238	283.840	231.581	298.188	302.795	305.493	283.124	228.286	296.803	299.262	131.933	122.217	129.283	135.633	187.797	120.904	116.654	113.598	135.657	190.900	122.073	119.734	37.081
15.000	275.699	295.299	290.310	283.601	232.106	297.090	301.817	304.681	277.943	228.167	294.798	297.137	143.273	124.867	129.211	135.180	187.033	122.026	117.322	114.028	140.169	191.044	123.577	122.073	50.211
16.000	263.882	291.837	290.190	283.649	232.369	295.896	300.909	304.395	273.049	227.379	292.721	294.798	155.257	127.755	129.188	134.869	186.436	123.410	118.325	114.720	145.469	191.712	126.156	124.556	43.398
17.000	252.971	288.758	289.928	283.434	232.870	294.201	300.026	303.535	267.534	226.687	289.569	291.790	167.504	131.217	129.474	134.846	186.102	124.795	119.614	115.580	151.056	192.691	129.235	127.445	30.449
18.000	242.037	285.081	290.119	284.055	233.300	292.100	297.877	302.366	261.948	225.565	286.036	288.829	177.364	134.655	129.593	134.869	185.696	126.776	121.142	116.606	156.141	193.527	132.578	130.310	34.780
19.000	231.652	281.047	289.569	283.768	233.825	290.142	296.254	301.530	256.314	224.180	281.620	285.654	187.224	138.283	129.761	134.941	185.362	129.044	123.267	117.681	161.727	194.720	136.851	133.294	47.323
20.000	223.512	277.084	289.450	283.959	233.825	287.922	293.891	300.145	251.157	222.724	277.322	282.193	196.344	142.461	130.119	135.299	185.314	131.527	125.869	119.041	167.075	196.320	141.602	137.042	44.842
21.000	218.140	273.049	289.307	283.267	233.920	284.938	290.811	298.617	246.096	221.506	272.357	278.946	202.479	146.926	130.644	135.824	185.242	134.177	128.543	120.665	172.637	197.537	146.973	140.909	33.607
22.000	222.055	268.322	288.089	283.315	234.183	282.479	287.660	296.636	241.321	220.217	266.818	274.481	197.490	150.626	130.835	136.039	185.075	136.875	131.790	122.121	177.173	198.874	151.485	143.965	33.878
23.000	227.928	264.383	288.782	282.097	234.279	279.399	284.222	294.917	236.976	218.403	261.112	271.163	191.855	155.043	131.360	136.541	185.075	139.907	135.371	123.935	181.996	200.521	157.525	148.167	44.436
24.000	233.419	260.205	287.612	281.452	233.968	276.033	280.402	293.556	233.634	216.923	255.979	267.319	186.317	159.483	131.933	137.519	185.219	143.368	139.310	125.941	186.078	202.025	163.160	151.772	45.157
25.000	237.525	256.003	286.728	280.378	233.753	272.810	276.248	291.360	230.578	216.350	250.059	263.547	182.402	163.971	132.721	138.021	185.362	146.902	143.941	128.089	188.895	202.646	169.080	155.783	36.901
26.000	236.761	257.149	287.110	281.023	233.324	272.213	274.792	291.909	229.790	216.445	248.364	264.693	182.927	162.849	132.721	138.355	185.815	147.355	144.729	127.230	189.396	202.598	170.154	154.899	34.464
27.000	234.875	258.964	286.203	280.521	232.965	272.667	275.771	292.697	229.743	216.469	248.961	265.935	185.099	161.202	133.198	138.260	185.935	146.520	143.846	126.275	189.492	202.813	169.581	153.586	42.405
28.000	233.682	259.847	286.490	280.760	233.228	273.144	276.320	293.556	230.029	216.469	249.844	266.269	186.508	160.008	133.270	138.092	186.006	145.756	143.464	125.821	189.587	202.766	168.961	152.798	45.699
29.000	232.751	260.396	286.299	280.903	233.324	273.837	276.224	293.986	229.838	216.994	250.083	266.890	187.200	159.197	133.198	138.140	186.221	145.445	143.368	125.463	189.420	202.455	169.176	152.369	38.390
30.000	238.242	257.937	285.750	281.214	233.061	272.763	274.840	293.127	229.337	216.923	247.313	264.765	181.781	161.775	133.342	138.140	186.030	146.233	144.825	126.251	189.587	202.049	171.348	154.064	33.427
31.000	251.491	267.510	285.320	280.044	233.156	269.277	269.850	290.166	230.316	218.021	242.395	272.094	168.961	152.846	133.628	138.737	186.078	149.456	149.146	128.567	189.110	201.214	176.576	147.594	40.375
32.000	284.771	283.458	285.415	278.850	232.488	265.815	264.884	289.880	230.626	217.901	250.226	283.673	133.771	135.466	134.273	139.477	186.197	153.085	154.684	129.522	188.609	201.023	168.245	134.917	46.917
33.000	297.710	291.909	284.819	278.993	232.512	264.264	261.948	291.909	230.148	217.424	262.521	291.169	121.095	127.397	134.846	140.289	186.699	154.923	157.764	127.111	188.489	201.763	155.568	128.280	40.014
34.000	303.870	296.063	283.983	278.325	231.676	265.266	262.473	294.941	229.265	217.090	273.932	294.249	115.580	124.055	135.442	140.766	187.152	153.586	156.881	124.174	189.325	202.455	144.371	124.508	29.772
35.000	308.047	297.925	283.983	278.206	232.011	269.778	266.914	297.352	230.674	217.686	282.073	296.660	112.166	121.882	135.944	140.599	187.152	149.981	152.918	121.930	188.489	201.333	136.302	122.312	38.841
36.000	309.408	299.023	283.768	278.253	231.820	273.741	272.357	299.214	234.541	219.835	287.039	298.259	109.946	120.665	136.111	140.074	187.439	145.063	147.188	119.638	184.120	199.471	131.360	120.975	50.391
37.000	311.056	300.074	283.410	279.375	232.178	279.113	277.776	300.933	240.199	221.291	290.882	298.999	108.561	119.972	136.135	139.501	187.272	139.955	141.387	118.086	178.295	197.681	128.257	120.020	42.495
38.000	311.939	300.265	283.768	279.686	232.011	283.315	282.718	301.912	246.621	222.581	292.506	299.883	108.083	119.519	136.135	139.095	187.343	136.039	136.970	117.251	172.112	196.320	126.012	119.352	29.140
39.000	312.440	300.814	284.055	280.832	231.915	286.896	286.681	303.153	252.685	224.586	294.225	300.384	107.439	119.137	135.633	138.188	187.272	132.339	133.055	116.344	166.168	194.887	124.652	119.089	35.006
40.000	312.798	300.408	284.126	281.309	231.557	289.068	289.474	303.488	257.746	225.278	294.989	300.623	106.985	118.994	135.228	137.710	187.487	129.761	129.975	115.675	160.533	193.837	123.673	118.803	49.173
41.000	313.228	301.053	285.033	281.763	231.438	291.097	291.479	303.846	261.685	225.971	295.848	300.575	106.914	118.827	134.583	137.328	187.558	127.946	127.779	115.269	156.021	193.216	123.148	118.492	46.466
42.000	313.061	300.909	285.678	281.763	231.557	292.792	293.437	303.870	265.266	226.472	296.684	301.291	106.914	118.779	134.106	136.946	187.678	126.705	126.251	115.078	152.631	192.500	122.575	118.277	31.171
43.000	312.918	301.315	285.821	281.882	231.270	293.652	294.941	304.299	268.441	227.140	296.827	301.100	106.794	118.707	133.915	136.803	187.988	125.559	124.723	114.792	149.504	192.190	122.169	118.182	31.441
44.000	312.822	301.244	286.084	282.240	231.008	294.392	295.800	304.777	271.020	227.188	296.899	301.339	106.341	118.636	133.342	136.517	188.131	124.723	123.553	114.840	146.926	191.832	121.906	118.086	46.827
45.000	313.109	301.196	286.514	282.479	231.032	294.989	296.540	304.634	273.431	227.546	296.899	300.957	106.197	118.636	133.103	136.469	188.394	124.317	122.622	114.434	144.419	191.593	121.572	117.967	49.083
46.000	313.395	301.196	287.063	282.956	230.578	295.227	297.161	304.538	275.508	227.451	297.209	301.267	106.556	118.540	132.530	136.350	188.585	123.649	122.049	114.505	142.795	191.521	121.620	118.015	34.554
47.000	313.443	301.196	287.397	282.885	230.530	296.254	297.901	304.920	277.394	227.522	296.827	301.649	106.460	118.445	132.363	136.469	188.752	123.386	121.572	114.314	141.029	191.473	121.357	117.919	29.321
48.000	313.491	301.100	287.373	282.980	230.077	296.254	298.355	304.920	278.588	227.618	297.257	301.411	106.484	118.468	132.100	136.326	188.991	123.124	120.951	114.219	139.668	191.569	121.238	117.704	43.849
49.000	313.252	301.482	287.779	283.076	229.886	296.182	299.119	304.896	279.447	227.642	297.591	301.864	106.197	118.421	132.005	136.278	189.086	122.718	120.545	114.243	138.427	191.545	121.262	117.394	50.797
50.000	313.252	301.124	287.707	282.694	229.575	296.135	298.952	304.514	280.879	227.904	297.758	301.363	106.508	118.301	131.599	136.302	189.325	122.646	120.331	114.171	137.567	191.521	121.047	117.609	38.705
51.000	313.467	301.267	287.994	282.718	229.599	297.090	299.716	304.705	281.811	227.498	297.376	301.387	106.197	118.325	131.599	136.350	189.420	122.431	119.949	114.195	136.708	191.736	121.166	117.657	28.328
52.000	313.658	301.172	288.471	282.646	229.814	296.875	299.859	305.398	283.100	227.116	297.663	301.673	106.388	118.349	131.527	136.421	189.587	122.217	119.638	114.076	135.801	191.784	121.095	117.681	39.924
53.000	313.634	301.291	288.352	282.980	229.432	297.233	300.193	305.087	283.625	227.045	297.686	301.602	106.197	118.564	131.097	136.278	189.707	122.193	119.376	114.123	135.251	191.784	121.118	117.585	51.203
54.000	312.989	301.196	288.400	283.147	229.456	297.137	299.978	304.419	284.031	227.093	297.734	301.769	106.245	118.301	131.097	136.469	189.874	122.145	119.113	114.100	134.511	191.688	120.927	117.657	41.232
55.000	313.180	301.697	288.686	282.575	229.289	297.495	300.456	304.968	284.890	227.307	297.782	301.840	106.150	118.325	130.954	136.183	189.850	122.002	119.113	113.909	134.010	191.879	120.999	117.490	28.328
56.000	313.562	301.578	288.543	282.765	229.146	297.663	300.480	304.872	285.439	227.475	297.734	301.745	106.078	118.421	130.978	136.326	189.874	121.858	118.922	114.147	133.676	192.023	120.832	117.466	36.946
57.000	313.610	301.124	289.092	282.980	229.146	297.925	300.718	304.825	286.060	227.260	297.257	301.602	106.078	118.325	130.644	136.302	190.137	121.858	118.707	114.147	133.342	192.190	120.713	117.609	50.527
58.000	313.514	301.960	288.949	282.813	228.979	297.233	301.029	305.016	286.370	227.045	297.806	301.888	106.412	118.421	130.811	136.445	190.256	121.763	118.468	114.100	132.792	192.166	120.927	117.513	44.797
59.000	313.682	301.458	289.211	282.909	228.788	297.567	301.124	305.398	286.943	226.926	297.567	301.578	106.221	118.492	130.548	136.421	190.447	121.715	118.492	114.076	132.434	192.190	121.023	117.537	29.591
60.000	313.156	301.315	288.734	282.479	228.788	297.901	300.790	305.159	287.301	226.973	297.973	301.721	106.269	118.421	130.525	136.445	190.399	121.620	118.254	114.147	132.220	192.428	120.975	117.299	33.246
61.000	313.156	301.721	289.283	282.336	228.907	297.758	301.244	304.777	287.540	226.854	298.116	301.673	106.221	118.516	130.429	136.469	190.471	121.739	118.325	113.956	131.790	192.214	120.760	117.442	48.948
62.000	313.729	301.411	289.187	282.789	228.597	298.092	301.554	304.825	287.755	226.830	298.140	301.840	106.174	118.445	130.381	136.612	190.566	121.572	118.158	113.956	131.766	192.381	120.760	117.322	47.007
63.000	313.825	301.458	289.044	282.551	228.453	297.901	301.458	305.183	288.113	226.735	297.854	301.960	106.341	118.325	130.357	136.469	190.638	121.596	118.039	114.243	131.479	192.476	120.904	117.322	31.261
64.000	313.085	301.649	288.973	282.169	228.430	297.854	301.339	305.159	288.614	226.639	298.021	302.103	106.102	118.468	130.357	136.469	190.781	121.453	117.848	113.885	130.859	192.524	120.784	117.418	31.396
65.000	314.326	301.530	288.782	282.885	228.907	297.925	302.031	304.896	288.447	226.472	297.854	301.721	106.317	118.206	130.334	136.588	190.781	121.524	117.824	113.980	130.572	192.572	120.808	117.633	46.962
66.000	313.204	301.196	289.211	282.551	228.549	297.758	301.793	305.135	288.901	226.138	297.925	302.198	106.078	118.468	130.429	136.612	190.829	121.548	117.776	114.004	130.596	192.691	120.760	117.370	49.128
67.000	313.682	300.981	289.283	282.527	228.883	297.901	301.793	305.254	289.092	226.353	298.212	302.079	106.126	118.373	130.262	136.779	190.686	121.285	117.704	114.004	130.334	192.619	120.904	117.418	34.600
68.000	313.252	300.862	288.996	282.407	228.119	298.021	301.840	305.207	289.522	226.830	297.925	301.960	106.197	118.325	130.238	136.612	190.805	121.476	117.537	113.861	130.286	192.715	120.689	117.322	29.321
69.000	313.276	301.721	289.355	282.646	228.215	297.424	301.817	304.920	289.307	226.305	297.949	301.864	105.983	118.277	130.453	136.636	190.853	121.357	117.442	114.004	130.095	192.739	120.713	117.442	43.894
70.000	313.395	301.626	289.808	282.694	228.239	297.901	301.840	304.681	289.378	226.114	297.877	301.411	106.078	118.301	130.238	136.541	190.781	121.357	117.370	114.076	130.190	192.858	120.808	117.322	50.797
71.000	313.156	301.244	289.068	282.384	228.239	297.806	302.031	305.183	289.784	226.615	297.615	301.936	106.197	118.349	130.143	136.493	190.853	121.405	117.561	114.004	129.928	192.810	120.904	117.299	36.991
72.000	313.419	301.387	289.355	282.360	228.382	297.997	302.007	305.016	289.737	226.496	298.283	302.318	106.293	118.325	130.214	136.803	190.972	121.429	117.394	113.980	129.928	192.930	120.951	117.346	28.373
73.000	314.087	301.506	289.259	282.885	228.477	298.188	302.103	304.944	289.808	226.400	297.782	301.697	106.221	118.397	130.286	136.732	190.853	121.238	117.322	114.004	129.713	192.858	120.880	117.275	40.555
74.000	313.682	301.244	288.949	282.216	228.310	298.021	302.318	305.350	290.119	226.424	298.021	301.888	106.245	118.182	130.214	136.732	191.020	121.214	117.322	114.076	129.665	192.786	120.689	117.299	51.339
75.000	313.944	301.244	289.832	282.479	228.525	298.283	302.270	305.207	289.880	225.851	297.472	301.745	106.174	118.421	130.119	136.755	191.020	121.262	117.227	113.956	129.522	192.930	120.856	117.370	40.646
76.000	313.992	301.172	289.641	282.312	228.310	297.806	302.604	305.254	290.405	226.209	297.901	302.031	106.245	118.421	130.071	136.564	190.924	121.214	117.370	113.956	129.426	192.930	120.832	117.299	28.328
77.000	313.849	301.602	289.784	282.933	228.286	298.045	302.533	305.016	290.333	226.138	297.758	301.960	106.054	118.277	130.143	136.708	191.020	121.166	117.012	113.909	129.211	192.906	120.665	117.155	37.171
78.000	313.753	301.148	289.713	282.169	228.024	297.877	302.222	304.992	290.620	226.400	297.973	301.793	106.197	118.254	130.119	136.636	191.091	121.166	117.108	114.028	129.235	192.930	120.760	117.251	50.978
79.000	313.801	301.029	289.140	282.073	228.358	297.639	302.652	305.636	291.026	226.424	298.116	301.769	106.269	118.325	130.214	136.588	190.996	121.118	117.060	114.243	129.402	193.025	120.760	117.132	43.533
80.000	313.586	301.339	289.426	282.479	227.928	298.140	302.580	305.159	290.859	225.899	298.259	301.840	106.078	118.230	130.166	136.827	191.044	121.142	116.917	113.980	129.283	192.977	120.880	117.394	29.230
81.000	314.064	301.029	289.092	282.097	228.406	298.116	302.652	305.421	291.097	226.400	298.045	301.793	106.174	118.254	130.071	136.541	190.996	121.262	117.036	114.076	129.188	193.121	120.713	117.299	34.464
82.000	313.920	301.769	289.474	282.646	228.071	297.806	302.151	305.135	290.620	226.114	298.164	301.984	106.460	118.397	130.023	136.755	191.068	121.190	117.060	114.028	128.997	193.097	120.784	117.275	49.399
83.000	313.873	301.005	289.331	282.455	228.453	298.283	302.867	305.541	291.073	226.257	297.997	301.840	106.078	118.373	130.071	136.564	191.211	121.095	116.988	114.100	128.901	193.121	120.665	117.275	46.556
84.000	313.156	301.649	289.522	282.670	227.880	297.877	302.294	304.968	290.859	225.780	298.092	302.103	106.150	118.254	130.095	136.755	191.115	121.262	116.941	113.932	128.877	193.145	120.689	117.299	30.990
85.000	314.135	301.172	289.355	282.407	227.952	298.403	302.676	304.896	291.264	226.472	297.806	301.984	105.935	118.445	130.166	136.779	191.068	121.142	116.845	113.861	128.830	193.097	120.665	117.227	31.757
86.000	313.514	301.435	289.307	282.097	227.928	297.901	302.604	305.111	291.193	226.185	298.068	301.745	105.983	118.397	129.999	136.660	191.115	121.214	116.893	113.909	128.806	193.168	120.689	117.251	46.872
87.000	313.729	301.339	289.307	282.073	228.095	298.116	302.867	305.207	291.217	226.042	298.546	302.103	106.197	118.325	130.071	136.636	191.044	121.095	116.893	113.885	128.543	193.192	120.832	117.299	48.993
88.000	314.064	301.769	289.355	282.336	227.976	297.686	302.461	304.968	291.432	226.018	297.758	302.198	106.460	118.325	130.214	136.923	191.163	121.047	116.678	114.100	128.615	193.312	120.808	117.275	34.013
89.000	313.252	301.315	289.999	281.858	228.048	297.925	302.700	304.992	291.169	225.875	297.973	302.270	106.293	118.230	130.023	136.660	191.139	121.047	116.702	113.932	128.471	193.216	120.760	117.299	29.682
