-----------------------------------------------------
BloodHound 307 VOC Analyser V2017.1
RoboScientific Ltd 
Espace North
Wisbech Road
Littleport
Cambridgeshire, UK
CB6 1RA 
-----------------------------------------------------
Date = 03/03/2021
Time = 11:14:45
Data is protected by RoboScientific Limited
-----------------------------------------------------
Name of the experiment = "2271N"
-----------------------------------------------------
Repeat No. = 3/4
-----------------------------------------------------
Experimental Time (in sec) and Flow Profile :
-----------------------------------------------------
Baseline = 2.00
Absorb = 4.00
Pause = 1.00
Desorb = 5.00
Flush = 18.00
Wait = 5.00
Higher Flow (V) = 4.00
Medium Flow (V) = 3.00
Low Flow (V) = 1.00
-----------------------------------------------------
Total Profile Time = 35 in sec
-----------------------------------------------------
Acquired data point per second = 4
--------------------------------------------------
Total data point stored  = 120
-----------------------------------------------------
Acquired sensor responses from 24 sensors
-----------------------------------------------------

Data Points	 Sen-1	 Sen-2	 Sen-3	 Sen-4	 Sen-5	 Sen-6	 Sen-7	 Sen-8	 Sen-9	 Sen-10	 Sen-11	 Sen-12	 Sen-13	 Sen-14	 Sen-15	 Sen-16	 Sen-17	 Sen-18	 Sen-19	 Sen-20	 Sen-21	 Sen-22	 Sen-23	 Sen-24	Humidity (%r.h.)
0.000	313.538	301.721	289.617	281.643	227.069	298.188	304.753	304.729	295.729	225.971	297.233	302.055	106.341	117.704	130.047	137.185	192.046	120.856	114.840	114.291	123.912	193.168	121.309	117.299	32.299
1.000	313.538	302.055	289.737	281.596	227.475	298.140	304.562	304.657	296.015	225.827	297.328	301.864	106.078	117.752	129.928	137.472	192.046	120.808	114.840	114.076	124.007	193.145	121.333	117.251	47.052
2.000	313.419	302.246	289.760	281.643	227.188	297.877	304.275	304.801	295.681	226.066	297.281	302.079	106.174	117.895	130.166	137.328	192.070	120.880	114.887	114.386	123.935	193.073	121.262	117.203	49.534
3.000	313.300	301.673	289.617	281.691	226.949	298.570	304.825	304.538	295.371	225.851	297.209	302.389	105.935	117.895	130.119	137.328	192.070	120.832	114.768	114.267	124.031	193.097	121.309	117.179	35.231
4.000	313.491	301.697	290.047	281.858	226.997	298.403	304.729	304.825	295.395	225.708	297.495	301.912	106.078	117.752	129.975	137.352	192.094	120.808	114.792	114.291	123.840	193.240	121.309	117.299	28.960
5.000	312.965	301.912	289.904	281.596	226.902	298.379	304.395	304.395	295.538	225.971	297.830	302.413	105.935	117.848	130.095	137.400	192.118	120.856	114.816	114.171	123.840	193.168	121.333	117.203	41.638
6.000	313.849	302.103	289.498	281.954	227.212	298.235	304.538	304.562	295.633	225.899	297.400	302.175	106.078	117.657	130.047	137.328	192.118	120.760	114.816	114.362	123.768	193.121	121.429	117.203	51.384
7.000	313.896	302.175	289.880	282.097	227.236	298.570	304.825	304.705	295.872	225.923	297.304	302.055	105.959	117.776	130.023	137.328	192.142	120.808	114.816	114.338	123.768	193.121	121.285	117.108	42.225
8.000	314.087	301.793	289.808	281.930	227.331	298.426	304.657	304.992	296.206	226.018	297.161	301.745	106.317	117.776	130.023	137.305	192.070	120.784	114.887	114.386	123.649	193.168	121.285	117.227	28.644
9.000	313.610	301.721	289.808	282.193	227.331	298.379	304.443	304.705	295.896	226.042	297.113	302.055	106.102	117.800	130.190	137.376	192.094	120.832	114.840	114.314	123.649	193.097	121.262	117.179	34.600
10.000	313.180	302.031	289.617	281.500	227.093	298.474	304.586	304.825	295.729	226.114	297.949	303.034	106.078	117.537	130.143	137.352	192.046	120.736	114.768	114.219	123.840	192.619	120.951	116.344	49.444
11.000	311.127	302.007	289.546	282.097	227.785	298.976	304.562	305.111	295.060	227.689	298.307	303.177	108.322	117.155	129.856	137.257	191.235	120.354	114.768	113.813	124.532	191.187	120.354	116.009	47.007
12.000	306.281	301.745	289.808	282.431	228.931	299.334	304.634	305.374	292.554	228.621	298.426	302.461	113.383	118.182	129.761	136.517	190.160	120.283	114.864	113.789	126.490	190.614	120.498	116.559	32.118
13.000	297.639	299.931	289.784	283.171	230.053	298.785	304.705	305.493	288.973	229.050	297.758	301.291	121.787	119.567	129.546	136.206	189.134	120.402	115.007	113.670	129.402	190.065	121.095	117.848	30.223
14.000	286.752	298.045	289.951	283.195	230.960	298.068	303.822	305.039	284.079	228.931	296.254	299.859	131.981	121.644	129.235	135.848	188.298	120.641	115.341	114.004	133.843	190.137	122.431	119.519	44.751
15.000	275.794	295.514	290.500	283.195	231.175	297.018	303.153	304.395	278.922	229.146	294.917	297.639	143.392	124.341	129.259	135.466	187.630	121.644	115.866	114.458	138.832	190.232	124.413	122.097	49.985
16.000	264.407	292.410	290.023	283.458	231.963	296.349	302.795	303.965	273.168	228.143	292.028	294.965	156.308	127.373	129.235	135.633	187.057	123.100	116.750	115.198	144.634	190.948	126.800	124.532	38.299
17.000	252.112	288.925	289.951	283.697	232.416	294.440	301.769	303.106	267.868	227.857	289.283	291.766	167.481	130.644	129.307	135.347	186.508	124.580	117.848	116.009	150.101	191.641	129.689	127.206	29.366
18.000	241.369	285.511	289.689	284.007	232.822	292.577	300.145	302.103	262.473	226.567	285.129	288.638	178.319	133.843	129.426	135.442	186.317	126.681	119.065	116.941	155.329	192.667	133.246	130.357	39.021
19.000	231.223	282.073	290.047	283.100	232.846	290.381	298.235	300.885	257.078	225.350	281.476	285.535	187.916	137.854	129.570	135.442	185.935	128.591	120.713	118.158	161.011	193.861	137.591	133.604	48.812
20.000	223.153	277.609	289.593	283.434	233.347	287.898	296.612	299.572	252.088	224.180	276.511	281.811	196.988	141.936	130.023	135.848	185.768	131.026	122.766	119.232	166.430	195.269	142.175	137.137	42.902
21.000	218.068	273.407	289.522	283.052	233.610	285.105	294.272	298.307	247.122	222.485	271.736	278.230	202.049	146.591	130.214	135.968	185.577	133.676	125.344	121.166	171.778	196.845	147.594	140.838	32.299
22.000	222.819	268.585	288.591	281.834	233.467	282.455	291.575	296.373	242.061	220.480	265.863	274.410	196.773	150.698	130.429	136.397	185.481	136.445	127.875	122.742	176.624	198.063	152.584	144.371	35.141
23.000	228.931	264.144	288.376	281.596	233.491	279.495	288.352	294.869	237.430	219.023	260.802	271.091	191.306	155.066	130.978	137.281	185.744	139.477	131.050	124.508	180.945	199.638	158.361	148.453	45.067
24.000	234.517	260.277	287.779	281.094	233.061	276.129	284.699	292.601	234.613	217.782	255.048	266.794	185.314	159.841	131.623	137.758	185.648	142.652	134.320	126.299	184.956	201.190	164.019	152.440	44.797
25.000	238.337	255.621	288.256	280.378	233.443	273.407	281.261	290.572	231.557	216.732	249.104	262.974	181.805	164.186	131.909	138.689	185.863	146.424	138.665	128.519	187.916	202.407	170.011	156.236	36.765
26.000	237.860	256.743	287.134	280.044	232.751	272.643	279.925	291.169	230.698	216.875	248.292	263.834	182.449	163.303	132.315	138.832	186.197	146.544	139.429	127.803	188.251	202.407	170.895	155.472	34.690
27.000	236.117	258.462	286.824	280.378	232.655	273.264	280.498	291.766	230.793	216.612	248.316	264.884	184.335	161.727	132.458	138.546	186.221	145.684	138.809	127.015	188.513	202.551	170.465	154.111	42.135
28.000	234.326	259.226	287.206	280.354	232.536	273.694	280.808	292.434	231.151	216.612	248.865	265.791	185.577	160.939	132.649	138.498	186.508	145.350	138.546	126.490	188.370	202.598	170.131	153.228	45.744
29.000	234.302	259.393	287.564	280.426	232.822	274.983	281.405	292.912	231.175	216.445	248.937	266.723	185.792	160.008	132.673	138.307	186.532	144.849	138.474	126.347	188.561	202.551	170.131	152.798	39.472
30.000	239.411	256.982	286.728	279.805	232.679	273.550	279.423	291.909	230.841	216.851	245.595	263.810	180.683	162.897	132.745	138.451	186.412	145.923	140.193	127.278	188.537	202.288	172.804	155.234	33.562
31.000	251.515	266.914	285.845	279.447	232.727	269.993	275.436	289.307	230.936	218.021	241.082	271.402	169.940	153.682	133.222	139.453	186.603	149.074	144.156	129.593	188.298	201.405	177.913	148.286	38.886
32.000	284.365	282.670	285.487	278.850	232.655	266.508	270.638	288.949	231.557	217.949	248.579	283.291	134.058	135.944	133.819	140.169	186.770	152.440	148.907	130.429	187.821	201.739	169.844	135.681	46.466
33.000	297.686	291.455	285.320	277.824	231.915	264.884	267.749	291.145	231.151	216.970	261.112	290.572	120.904	127.660	134.440	141.077	187.105	154.684	151.867	128.209	188.060	202.073	157.000	128.424	43.714
34.000	304.347	296.111	285.439	277.752	232.082	265.839	268.441	293.795	230.793	217.185	272.786	294.105	115.460	123.888	134.750	141.554	187.487	153.562	151.199	125.153	188.776	201.930	146.329	124.699	32.208
35.000	308.071	298.355	284.484	277.466	231.581	269.492	271.927	296.922	231.557	218.665	281.214	296.779	111.784	121.405	135.275	141.315	187.630	149.647	147.403	122.384	187.558	200.665	137.758	122.551	32.750
36.000	310.029	299.477	283.816	278.588	231.676	274.004	276.511	299.143	236.236	220.623	286.466	297.925	109.707	120.283	135.681	140.647	187.797	144.849	142.604	120.354	182.974	198.540	132.243	120.999	46.511
37.000	311.628	300.265	284.270	278.564	231.796	279.352	281.787	300.456	241.894	222.390	289.402	299.143	108.203	119.447	135.586	139.931	187.678	139.907	137.615	118.659	176.600	196.558	128.758	120.235	49.128
38.000	311.963	301.244	284.437	279.280	231.557	283.649	286.132	301.578	247.863	224.108	291.575	299.501	107.463	119.018	135.251	139.334	187.773	135.610	133.580	117.466	170.513	194.911	126.776	119.686	36.404
39.000	312.846	301.005	284.675	279.948	231.485	286.800	289.546	302.437	254.117	225.541	293.413	300.217	107.296	118.516	134.941	138.403	187.725	132.267	130.166	116.750	164.282	193.479	125.416	119.089	28.824
40.000	313.013	301.244	285.272	280.832	231.366	289.665	292.363	302.962	259.274	226.687	294.153	300.456	106.723	118.468	134.655	138.045	187.773	129.761	127.421	116.224	159.244	192.548	124.437	118.659	40.285
41.000	312.989	301.554	285.415	281.190	231.079	291.312	294.034	303.153	263.285	227.570	295.395	300.790	106.627	118.325	134.106	137.543	187.892	127.707	125.248	115.484	154.517	191.641	123.840	118.421	51.023
42.000	312.965	301.411	285.750	281.548	230.984	292.768	295.657	303.989	267.128	228.048	295.657	301.029	106.651	118.230	133.556	137.233	188.203	126.371	123.816	115.389	150.626	191.282	123.148	118.110	42.225
43.000	313.347	301.864	286.442	281.978	230.650	293.628	296.875	304.084	270.399	228.382	295.872	301.220	106.556	118.063	133.342	137.090	188.585	125.344	122.527	115.102	147.451	190.948	122.837	118.110	29.005
44.000	313.753	301.435	286.561	282.336	230.841	294.893	297.877	304.275	272.643	228.406	296.015	301.291	106.532	118.015	132.864	136.970	188.656	124.819	121.644	114.840	144.658	190.829	122.599	118.063	34.419
45.000	314.159	301.530	287.158	282.384	230.196	295.132	298.904	304.395	275.508	228.453	296.326	301.315	106.460	118.110	132.434	136.660	188.943	124.055	120.713	114.816	142.581	190.829	122.431	117.919	49.173
46.000	313.395	301.626	286.943	282.479	230.077	295.848	299.071	304.395	277.322	228.907	296.708	301.530	106.460	117.919	132.076	136.684	189.062	123.434	119.972	114.696	140.217	190.757	122.360	117.895	47.549
47.000	313.682	302.079	287.707	282.431	230.101	296.588	300.241	304.705	279.543	228.573	296.278	301.482	106.197	117.800	131.957	136.684	189.349	123.291	119.543	114.673	138.641	190.709	122.169	117.728	32.705
48.000	313.156	301.793	287.922	282.431	229.504	296.111	300.312	304.586	280.712	228.477	296.588	301.578	106.245	117.800	131.694	136.708	189.468	122.766	119.018	114.577	136.851	190.614	122.193	117.752	29.817
49.000	313.156	301.817	288.256	282.813	229.766	296.373	300.432	304.395	281.787	228.621	297.137	302.127	106.269	117.872	131.456	136.469	189.540	122.622	118.779	114.505	135.992	190.709	122.049	117.609	43.669
50.000	313.873	302.007	288.447	282.503	229.671	296.469	301.005	304.490	283.386	228.406	296.946	301.435	106.126	117.752	131.384	136.588	189.755	122.431	118.445	114.577	134.774	190.805	122.002	117.490	51.068
51.000	314.159	301.793	288.233	282.312	229.337	297.066	301.745	304.729	284.508	228.430	296.731	301.458	106.102	117.824	131.145	136.421	189.826	122.217	118.158	114.505	133.843	190.877	121.811	117.561	39.879
52.000	313.300	301.793	288.734	281.930	229.026	296.827	301.578	304.944	285.368	228.573	297.209	301.912	106.030	117.872	131.288	136.755	190.089	122.121	117.681	114.458	132.983	190.877	121.906	117.442	28.102
53.000	313.610	302.294	288.734	282.407	228.740	297.281	301.554	304.610	285.845	228.119	297.113	302.103	106.174	117.609	130.835	136.779	190.232	121.835	117.585	114.362	132.434	191.068	121.858	117.585	36.765
54.000	313.634	301.888	288.567	282.336	228.812	297.161	301.912	304.801	286.418	228.358	297.304	302.151	106.197	117.895	130.763	136.660	190.471	121.930	117.442	114.362	131.790	190.972	121.835	117.490	50.391
55.000	313.920	302.007	288.925	282.264	228.764	297.543	302.175	304.896	287.636	228.095	296.899	301.673	105.983	117.776	130.716	136.779	190.733	121.667	117.251	114.362	131.097	191.068	121.715	117.490	45.744
56.000	313.634	302.103	289.092	282.646	228.477	297.567	302.389	304.801	287.922	228.143	296.970	301.530	106.341	117.776	130.692	136.732	190.686	121.787	117.179	114.529	130.811	191.259	121.739	117.442	31.125
57.000	313.347	302.127	289.235	282.360	228.310	297.400	302.270	304.801	288.519	227.833	296.684	301.721	105.863	117.776	130.477	136.755	190.853	121.524	116.988	114.410	130.119	191.163	121.787	117.490	31.261
58.000	313.347	301.960	288.973	282.336	228.191	298.045	302.533	304.657	289.044	227.713	296.994	301.721	106.054	117.776	130.572	136.803	190.948	121.644	116.845	114.338	129.856	191.235	121.763	117.299	46.331
59.000	313.801	302.222	289.378	281.834	228.501	297.495	302.485	304.968	289.665	227.761	297.472	302.198	106.054	117.681	130.501	136.803	190.972	121.381	116.654	114.553	129.593	191.330	121.835	117.442	49.805
60.000	313.514	302.079	289.211	282.049	228.358	297.758	302.867	304.562	289.689	227.761	297.066	301.817	105.911	117.919	130.477	136.875	191.044	121.453	116.797	114.147	129.044	191.426	121.572	117.394	36.810
61.000	313.276	302.366	289.283	281.906	228.048	297.806	302.533	304.395	290.071	228.000	297.448	302.055	105.983	117.824	130.381	137.042	190.972	121.381	116.535	114.386	128.925	191.569	121.739	117.346	28.509
62.000	314.135	302.127	289.498	282.097	228.215	297.973	303.225	304.371	290.262	227.355	296.946	301.769	105.983	117.824	130.286	136.923	191.115	121.190	116.248	114.362	128.543	191.497	121.691	117.275	39.337
63.000	313.801	301.554	289.068	282.145	228.501	297.806	303.249	304.992	290.644	227.236	296.922	301.840	106.006	117.824	130.310	136.875	191.163	121.262	116.391	114.362	128.376	191.450	121.691	117.299	51.023
64.000	313.610	302.175	289.546	282.145	227.904	297.567	303.010	304.896	291.026	227.403	296.708	301.578	106.341	117.585	130.143	136.970	191.259	121.381	116.439	114.362	128.257	191.641	121.691	117.346	43.849
65.000	313.419	302.007	289.044	282.121	227.737	297.639	303.106	305.183	291.599	227.045	297.113	301.912	106.269	117.776	130.190	136.899	191.139	121.333	116.344	114.410	127.898	191.641	121.691	117.346	29.682
66.000	313.729	302.103	289.259	282.503	228.215	297.973	303.344	304.705	291.217	227.355	297.161	301.697	105.983	117.728	130.310	137.090	191.330	121.262	116.153	114.386	127.707	191.712	121.524	117.322	32.299
67.000	313.109	302.079	289.235	281.834	227.188	297.806	302.915	304.705	291.670	227.427	297.209	301.602	105.935	117.752	130.310	136.899	191.330	121.214	116.153	114.410	127.493	191.617	121.620	117.322	46.601
68.000	313.705	301.697	289.426	282.264	228.095	298.283	303.750	304.634	291.933	227.427	296.899	301.697	105.959	117.848	130.334	137.066	191.402	121.118	116.057	114.434	127.325	191.712	121.572	117.299	49.850
69.000	313.777	302.294	289.617	282.455	227.904	298.021	303.321	304.753	291.861	226.997	297.113	301.936	106.174	117.752	130.214	137.042	191.354	121.285	115.962	114.338	127.278	191.855	121.524	117.108	35.908
70.000	313.419	301.745	289.211	281.429	227.546	297.901	303.297	304.657	292.219	227.188	297.543	302.031	106.102	117.919	130.238	136.994	191.473	121.166	115.986	114.386	127.063	191.879	121.500	117.179	28.554
71.000	313.801	302.079	289.426	282.097	227.737	298.068	303.368	304.395	292.649	227.116	297.018	302.031	106.102	117.704	130.047	136.946	191.450	120.999	115.986	114.267	126.943	191.951	121.500	117.227	40.104
72.000	313.705	301.864	289.450	281.882	227.379	297.830	303.034	304.538	292.530	227.451	297.257	302.198	106.197	117.585	130.143	137.233	191.593	121.214	115.866	114.338	126.848	191.975	121.500	117.299	51.294
73.000	314.183	301.745	288.996	281.811	227.904	298.331	303.870	304.562	292.864	227.188	297.806	301.864	106.221	117.704	130.143	137.114	191.521	121.118	115.890	114.386	126.776	191.784	121.572	117.346	42.405
74.000	313.729	302.055	289.928	282.121	227.522	298.522	303.965	304.490	292.601	226.878	296.875	301.817	106.126	117.728	130.143	137.233	191.473	121.047	115.627	114.267	126.705	192.190	121.763	117.275	29.185
75.000	313.419	301.769	289.546	281.643	227.546	297.973	303.583	304.586	293.055	226.973	297.161	301.817	105.720	117.848	130.310	137.090	191.569	121.238	115.795	114.291	126.538	192.023	121.500	117.299	34.058
76.000	312.870	301.244	289.546	281.858	227.522	297.997	303.512	304.562	292.864	227.260	297.209	301.793	105.863	117.943	130.214	137.066	191.545	121.142	115.723	114.362	126.394	191.975	121.453	117.084	48.180
77.000	313.896	302.151	289.832	282.193	227.403	298.283	303.822	304.896	293.294	226.615	296.994	301.864	106.006	117.704	130.214	137.090	191.545	121.047	115.627	114.458	126.514	192.142	121.572	117.203	48.451
78.000	314.135	301.769	289.044	281.715	227.236	298.164	304.013	305.016	293.795	227.403	296.970	301.840	106.102	117.848	130.047	137.281	191.688	121.118	115.675	114.338	126.180	192.070	121.476	117.203	33.968
79.000	313.777	302.318	289.784	282.288	227.379	297.997	303.488	304.753	293.007	226.639	297.233	302.366	105.863	117.943	130.071	137.137	191.569	120.975	115.556	114.434	126.347	192.190	121.644	117.203	29.276
80.000	313.228	301.578	289.522	282.025	227.594	298.259	303.726	304.896	293.150	227.093	297.352	301.984	105.839	117.704	130.071	137.281	191.593	121.118	115.484	114.338	126.251	192.166	121.405	117.275	42.902
81.000	314.183	301.817	289.020	281.620	227.403	298.235	304.037	304.801	293.461	226.806	297.090	301.482	106.221	117.728	130.166	137.114	191.688	121.142	115.795	114.434	125.989	192.142	121.524	117.227	51.249
82.000	313.729	302.246	289.331	281.882	227.164	298.331	304.037	304.562	293.604	227.045	297.591	302.031	105.983	117.800	130.310	137.209	191.593	120.975	115.508	114.314	125.869	192.285	121.596	117.251	40.330
83.000	313.873	302.079	289.617	281.978	227.451	298.283	304.084	304.634	293.341	226.758	297.304	301.769	105.935	117.681	130.238	137.209	191.617	120.999	115.389	114.219	125.989	192.333	121.596	117.275	28.283
84.000	314.040	301.769	289.402	282.049	227.976	298.570	304.252	305.135	293.819	226.735	297.113	301.769	105.625	117.800	130.190	137.185	191.760	121.095	115.413	114.314	125.917	192.404	121.429	117.084	36.720
85.000	313.634	302.127	289.092	281.787	227.331	297.806	303.917	304.443	293.723	227.116	297.877	301.840	105.983	117.752	130.071	137.185	191.664	120.951	115.293	114.338	125.965	192.500	121.524	117.227	50.662
86.000	313.801	302.151	289.904	281.739	227.212	298.116	303.774	304.634	293.747	226.830	297.137	301.888	106.197	117.728	130.143	137.257	191.712	120.927	115.269	114.410	125.893	192.476	121.548	117.179	45.112
87.000	313.133	302.198	289.259	281.882	227.069	298.212	303.870	304.466	293.700	227.069	297.997	302.103	105.959	117.872	130.166	137.281	191.784	121.118	115.556	114.338	125.917	192.381	121.453	117.179	30.178
88.000	313.013	301.745	289.880	281.524	227.427	297.949	303.846	304.801	293.795	226.544	297.090	302.413	106.030	117.943	130.143	137.233	191.808	121.095	115.317	114.171	125.702	192.333	121.405	117.227	31.847
89.000	313.705	302.222	289.617	281.524	227.618	297.901	304.108	304.729	293.962	226.257	297.281	302.007	106.150	117.537	129.952	137.233	191.760	120.951	115.293	114.434	125.678	192.452	121.453	117.227	46.511
