-----------------------------------------------------
BloodHound 307 VOC Analyser V2017.1
RoboScientific Ltd 
Espace North
Wisbech Road
Littleport
Cambridgeshire, UK
CB6 1RA 
-----------------------------------------------------
Date = 03/03/2021
Time = 11:02:59
Data is protected by RoboScientific Limited
-----------------------------------------------------
Name of the experiment = "5755N"
-----------------------------------------------------
Repeat No. = 2/4
-----------------------------------------------------
Experimental Time (in sec) and Flow Profile :
-----------------------------------------------------
Baseline = 2.00
Absorb = 4.00
Pause = 1.00
Desorb = 5.00
Flush = 18.00
Wait = 5.00
Higher Flow (V) = 4.00
Medium Flow (V) = 3.00
Low Flow (V) = 1.00
-----------------------------------------------------
Total Profile Time = 35 in sec
-----------------------------------------------------
Acquired data point per second = 4
--------------------------------------------------
Total data point stored  = 120
-----------------------------------------------------
Acquired sensor responses from 24 sensors
-----------------------------------------------------

Data Points	 Sen-1	 Sen-2	 Sen-3	 Sen-4	 Sen-5	 Sen-6	 Sen-7	 Sen-8	 Sen-9	 Sen-10	 Sen-11	 Sen-12	 Sen-13	 Sen-14	 Sen-15	 Sen-16	 Sen-17	 Sen-18	 Sen-19	 Sen-20	 Sen-21	 Sen-22	 Sen-23	 Sen-24	Humidity (%r.h.)
0.000	313.371	301.936	289.593	282.360	227.618	298.331	303.750	304.634	293.270	225.254	298.116	302.389	106.245	118.158	130.095	136.923	191.569	120.975	115.627	114.076	126.394	193.909	120.951	117.251	31.171
1.000	313.180	301.244	289.880	282.073	227.594	298.522	303.726	304.848	293.437	225.398	298.188	302.246	106.054	118.158	129.856	136.923	191.497	120.832	115.604	114.100	126.347	193.789	120.832	117.084	31.712
2.000	313.801	301.530	289.593	282.216	227.857	298.450	304.084	305.016	293.652	225.493	297.734	301.745	106.030	118.206	129.999	136.851	191.545	120.951	115.675	114.147	126.442	193.789	120.736	117.108	47.504
3.000	313.825	301.649	289.641	282.312	227.475	298.235	303.846	304.896	293.747	225.254	298.021	301.864	106.126	118.134	129.928	136.827	191.569	120.951	115.532	114.123	126.347	193.718	120.856	117.203	48.767
4.000	313.658	301.124	289.307	282.718	227.594	298.379	304.061	304.705	293.891	225.684	297.854	301.888	105.959	118.182	129.999	136.851	191.593	120.784	115.460	114.147	126.251	193.885	120.904	117.227	34.058
5.000	313.562	301.482	289.760	281.978	227.427	298.045	303.607	305.159	293.914	225.636	298.140	301.817	105.935	118.277	129.808	136.899	191.545	120.856	115.484	114.004	126.299	193.813	120.880	117.012	29.411
6.000	313.443	301.148	289.808	282.097	227.713	298.379	303.846	304.920	293.747	225.589	298.045	302.151	105.863	118.182	129.975	136.803	191.521	120.951	115.532	114.147	126.371	193.813	120.713	117.084	43.578
7.000	313.705	301.960	289.904	281.954	227.522	298.045	303.607	305.016	294.201	224.992	298.068	302.175	106.174	118.277	130.023	136.923	191.497	120.904	115.508	114.100	126.203	193.813	120.951	117.060	50.888
8.000	313.586	302.127	289.784	282.264	227.761	298.068	303.893	304.801	293.676	225.374	298.188	302.007	106.174	118.277	130.071	136.899	191.664	120.808	115.556	114.076	126.251	193.765	120.784	117.155	38.254
9.000	313.920	301.339	289.617	282.049	227.212	298.355	303.917	305.016	293.962	225.493	297.591	302.079	106.197	118.086	129.975	136.875	191.521	120.904	115.580	114.147	126.323	193.718	120.927	117.060	28.238
10.000	313.514	301.673	289.283	282.216	227.666	298.212	304.037	305.230	293.938	225.947	298.379	302.724	106.412	117.800	129.904	136.875	191.569	120.784	115.436	113.909	126.347	193.192	120.593	116.535	39.292
11.000	311.079	302.127	289.593	282.193	228.334	298.450	303.774	305.421	292.530	227.355	298.904	303.273	108.513	117.800	129.832	136.517	190.757	120.426	115.436	113.598	127.087	192.070	119.949	115.866	51.384
12.000	306.233	301.291	290.047	282.789	229.337	298.641	303.941	305.780	290.835	228.143	298.904	302.461	113.718	118.397	129.617	135.968	189.540	120.307	115.723	113.503	128.639	191.139	120.044	116.773	41.638
13.000	297.639	299.954	290.238	283.243	230.244	298.617	303.726	305.994	287.278	228.143	297.901	301.458	122.431	120.235	129.570	135.801	188.823	120.307	115.842	113.574	131.599	190.829	120.641	117.967	28.463
14.000	287.325	296.970	290.405	283.577	231.366	298.474	302.962	305.183	283.052	228.716	296.708	299.644	132.291	122.097	129.283	135.586	187.964	120.880	116.105	113.718	135.371	190.877	122.073	119.638	35.592
15.000	275.150	295.156	290.596	283.601	231.724	296.946	302.389	304.562	277.633	228.024	295.060	297.352	144.109	124.699	129.331	135.299	187.224	121.739	116.750	114.291	140.050	191.068	124.031	122.026	49.263
16.000	264.383	292.530	290.166	284.007	232.440	295.968	301.649	304.204	272.810	227.403	292.267	294.917	155.568	127.636	129.331	134.989	186.723	123.219	117.752	115.031	145.469	191.688	126.227	124.317	45.789
17.000	252.470	288.519	289.975	283.935	232.846	294.726	300.718	303.201	267.534	226.567	289.808	292.363	167.218	130.692	129.402	134.965	186.030	124.867	118.755	115.651	150.936	192.595	129.570	127.230	32.028
18.000	241.894	285.153	290.405	284.031	233.371	292.410	298.952	302.342	262.067	225.421	285.439	288.734	177.006	134.416	129.498	134.941	185.720	126.585	120.378	116.773	155.735	193.383	132.697	130.214	32.614
19.000	231.820	281.023	289.474	283.601	233.610	290.429	297.352	301.172	256.934	224.132	281.476	285.511	187.869	138.092	129.665	135.108	185.529	128.639	122.097	117.728	161.488	194.792	137.233	133.724	45.473
20.000	223.416	277.394	289.641	283.888	233.538	287.898	294.941	299.835	252.136	223.106	277.346	282.598	196.845	142.485	129.975	135.204	185.242	131.265	124.461	119.089	166.764	195.914	141.673	136.946	47.323
21.000	217.973	273.097	289.331	283.935	233.873	285.392	292.625	298.403	247.170	221.626	271.808	278.230	202.193	146.758	130.190	135.633	185.171	133.891	127.206	120.665	172.231	197.299	147.117	140.862	36.134
22.000	222.103	268.418	289.283	283.028	233.873	282.622	289.546	296.636	241.751	220.527	266.388	274.362	197.227	150.435	130.525	136.135	185.242	136.755	129.975	122.336	176.744	198.874	152.011	144.252	32.389
23.000	228.549	264.096	288.376	282.598	233.825	279.304	286.012	295.013	237.621	218.713	260.539	270.996	191.306	155.162	131.026	136.636	185.099	139.931	133.365	124.174	181.566	200.378	157.382	148.215	42.044
24.000	233.825	260.133	287.755	281.285	233.968	275.914	282.169	293.174	233.729	217.161	255.430	267.319	186.054	159.817	131.456	137.496	185.290	142.795	137.090	126.132	185.624	201.787	163.661	152.202	46.240
25.000	237.812	255.884	287.254	280.879	233.252	273.121	278.397	291.336	231.151	216.517	249.581	263.285	182.378	164.210	132.029	138.212	185.481	146.329	141.172	128.137	188.465	202.431	169.200	155.854	39.427
26.000	237.167	256.743	286.442	280.116	233.133	272.810	277.298	291.814	230.960	216.612	248.364	264.455	182.879	163.064	132.554	138.307	185.815	146.949	142.318	127.516	189.110	202.837	170.417	154.995	33.787
27.000	235.401	258.940	287.063	280.259	233.538	273.335	278.158	292.864	230.936	216.206	248.937	265.338	184.598	161.345	132.649	138.236	185.863	145.827	141.602	126.633	188.943	202.670	169.892	153.730	39.202
28.000	234.207	259.274	286.370	281.047	233.419	273.980	278.635	293.437	230.912	216.732	249.390	266.269	186.245	160.462	132.721	138.045	185.959	145.469	141.220	126.084	189.038	202.909	169.367	153.013	46.015
29.000	233.467	260.348	286.490	280.832	232.989	274.147	278.540	293.580	230.292	216.684	249.868	266.770	186.699	159.579	132.697	137.997	186.078	145.016	141.005	125.607	188.919	202.622	169.200	152.631	41.819
30.000	238.767	257.340	286.514	280.760	232.894	273.383	276.964	292.363	230.339	217.209	246.693	264.884	181.041	162.133	132.912	138.140	185.959	146.042	142.724	126.585	189.301	202.216	171.849	154.470	33.652
31.000	251.945	267.033	285.988	280.139	233.156	269.826	272.524	290.429	230.411	217.782	242.061	271.569	169.486	152.918	133.365	138.928	186.078	149.026	146.687	128.973	189.205	201.357	176.791	147.809	37.938
32.000	284.914	283.100	286.084	279.280	233.013	266.030	267.606	289.569	230.888	218.068	249.343	283.816	134.416	135.729	133.819	139.620	186.174	152.679	151.724	129.689	188.537	201.405	168.722	135.156	46.150
33.000	297.806	291.790	285.153	278.659	232.655	264.837	264.837	291.599	230.578	217.472	262.640	290.691	121.214	127.731	134.273	140.360	186.603	154.637	154.947	127.325	188.800	202.097	156.141	128.280	44.436
34.000	304.084	295.490	284.747	277.848	232.202	265.863	266.126	294.654	230.244	216.851	273.837	294.822	115.890	124.055	135.013	140.695	187.009	153.491	154.135	124.532	188.991	202.240	145.278	124.843	32.118
35.000	307.976	297.949	284.102	278.158	231.820	269.325	269.587	297.281	231.199	218.021	281.978	296.588	111.999	121.715	135.442	140.742	187.272	149.599	150.220	121.954	187.916	201.309	136.970	122.384	33.020
36.000	310.339	298.713	283.506	278.158	232.011	274.195	274.290	299.525	235.401	219.572	286.967	297.997	109.755	120.402	135.777	140.289	187.319	144.920	144.872	119.734	183.547	199.113	131.718	121.023	46.601
37.000	311.175	300.121	283.840	279.208	231.939	279.161	279.590	300.671	241.226	221.244	290.453	298.928	108.394	119.877	135.657	139.549	187.272	140.146	139.740	118.445	177.340	197.418	128.543	120.140	48.632
38.000	311.987	300.503	284.222	280.068	231.939	283.291	284.246	302.007	247.194	223.297	292.506	299.835	107.630	119.352	135.633	138.713	187.272	135.729	135.347	117.466	171.396	195.866	126.299	119.495	34.464
39.000	312.655	300.718	284.795	280.665	231.891	286.848	287.803	302.509	252.995	224.634	293.962	300.002	107.487	118.946	135.132	138.164	187.367	132.243	131.623	116.511	165.165	194.577	125.010	119.209	29.727
40.000	312.464	301.148	284.890	280.736	231.581	289.187	290.381	303.201	258.104	225.708	294.750	300.336	106.794	118.850	134.678	137.615	187.463	129.808	128.901	115.962	160.175	193.622	124.079	118.683	43.669
41.000	312.631	301.100	285.606	281.787	231.342	291.312	292.625	303.321	262.043	226.448	295.514	300.718	106.842	118.516	134.249	137.161	187.534	127.803	126.562	115.365	155.639	192.810	123.553	118.588	50.888
42.000	313.491	300.957	285.535	281.930	231.533	292.912	294.678	304.132	266.221	227.116	296.039	301.124	106.627	118.540	133.915	136.923	187.725	126.394	124.914	115.102	152.249	192.214	122.909	118.373	39.021
43.000	313.658	301.339	286.108	282.431	231.294	293.723	295.991	304.395	269.038	227.451	296.349	301.053	106.651	118.564	133.509	136.684	187.988	125.416	123.744	115.007	149.241	191.760	122.503	118.182	28.283
44.000	313.276	301.339	286.299	282.646	231.056	294.726	297.018	304.108	271.784	227.642	296.970	301.220	106.603	118.468	133.127	136.517	188.179	124.676	122.718	114.768	146.353	191.569	122.217	117.991	38.615
45.000	313.252	301.196	286.776	282.861	230.769	295.132	297.328	304.801	273.694	227.713	296.827	301.291	106.269	118.325	132.411	136.517	188.513	124.079	121.882	114.601	144.132	191.545	122.240	117.872	50.978
46.000	313.324	301.626	287.445	282.861	230.507	295.395	298.594	304.490	275.532	227.737	297.257	301.411	106.221	118.445	132.411	136.278	188.871	123.601	121.118	114.386	141.936	191.473	121.882	117.848	42.766
47.000	314.087	301.411	287.564	283.267	230.387	296.302	299.119	304.634	278.110	227.642	296.803	301.100	106.341	118.445	132.148	136.326	188.871	123.315	120.689	114.434	140.432	191.497	121.787	117.895	29.185
48.000	312.798	301.745	288.065	282.789	229.766	296.230	299.119	304.681	278.946	227.594	297.018	301.387	106.221	118.230	131.694	136.135	189.110	123.100	120.426	114.386	139.167	191.450	121.548	117.919	35.457
49.000	313.037	301.721	287.946	282.694	229.886	296.302	299.644	304.538	280.450	227.785	297.185	301.745	106.102	118.206	131.456	136.278	189.229	122.718	119.805	114.386	137.901	191.473	121.572	117.466	49.760
50.000	313.634	301.291	288.018	282.575	229.838	296.803	300.074	304.872	282.049	227.451	297.137	301.482	106.174	118.158	131.360	136.111	189.205	122.503	119.423	114.291	136.851	191.569	121.524	117.609	45.744
51.000	313.944	301.936	288.710	283.195	229.743	297.304	300.527	304.992	282.622	227.140	297.209	301.291	106.174	118.254	131.193	136.183	189.587	122.336	119.041	114.362	135.896	191.593	121.500	117.657	30.584
52.000	313.538	301.267	288.758	282.575	229.170	297.185	300.575	304.610	283.911	227.546	297.400	301.267	106.078	118.086	130.906	136.111	189.683	122.097	118.898	114.338	135.323	191.664	121.500	117.704	32.163
53.000	313.896	301.363	288.662	282.956	229.575	297.543	300.790	304.514	284.174	227.785	297.686	301.578	106.245	118.373	131.026	136.206	189.826	122.097	118.755	114.267	134.511	191.760	121.357	117.657	47.368
54.000	313.753	301.817	288.567	282.956	229.289	297.042	300.981	304.825	284.604	227.403	297.639	301.339	106.054	118.182	130.883	136.254	189.898	121.930	118.445	114.195	133.962	191.832	121.381	117.490	48.767
55.000	313.467	301.626	289.307	283.076	229.217	297.519	301.506	304.657	285.511	226.949	297.663	301.435	106.197	118.110	130.596	136.374	190.137	121.954	118.301	114.147	133.294	191.951	121.453	117.561	34.103
56.000	313.443	301.817	288.758	282.503	228.668	297.448	301.076	304.896	286.251	227.093	297.854	301.673	106.174	118.182	130.787	136.493	190.375	121.930	118.134	114.291	132.888	191.855	121.333	117.442	29.366
57.000	313.228	301.482	289.116	282.837	228.716	297.281	301.148	304.825	286.681	227.069	297.424	301.554	106.221	118.134	130.644	136.326	190.232	121.715	117.895	114.147	132.602	192.190	121.309	117.370	43.759
58.000	313.562	301.458	289.164	282.598	228.716	297.830	301.530	304.681	286.824	226.902	297.949	301.649	106.030	118.230	130.620	136.350	190.304	121.596	117.991	114.243	132.124	192.142	121.309	117.537	50.843
59.000	314.231	301.172	288.829	282.503	228.716	297.663	302.270	305.159	287.898	227.260	297.328	301.148	105.744	118.277	130.429	136.374	190.447	121.667	117.895	114.195	131.718	192.285	121.190	117.370	38.209
60.000	313.324	301.673	289.044	282.837	228.525	297.734	301.506	304.681	287.827	227.045	297.877	301.649	106.317	118.182	130.453	136.302	190.638	121.572	117.728	114.314	131.432	192.285	121.118	117.561	28.373
61.000	313.992	301.506	288.877	282.503	228.358	297.591	302.485	304.992	288.376	226.639	297.854	301.888	106.102	118.254	130.381	136.397	190.733	121.500	117.442	114.291	131.002	192.309	121.095	117.490	40.059
62.000	313.610	301.363	288.829	282.670	228.406	297.854	301.817	304.777	288.447	227.140	297.352	301.721	106.341	118.206	130.357	136.326	190.638	121.357	117.346	114.267	130.859	192.476	121.095	117.466	51.294
63.000	313.944	301.482	289.283	282.551	228.167	297.639	302.055	305.159	289.020	226.353	297.352	301.912	106.150	118.349	130.334	136.421	190.757	121.309	117.227	114.123	130.525	192.572	121.166	117.227	40.961
64.000	313.777	301.840	289.307	283.028	228.477	297.830	302.389	304.896	288.949	226.520	297.710	301.435	105.887	118.158	130.334	136.421	190.829	121.333	117.251	114.123	130.286	192.524	121.047	117.346	28.328
65.000	313.204	301.793	289.760	282.551	228.191	298.140	302.485	304.968	288.949	226.424	297.137	301.697	105.935	118.230	130.238	136.517	190.877	121.572	117.203	114.171	130.071	192.524	121.095	117.418	37.487
66.000	313.514	301.458	289.546	282.861	228.119	298.259	302.604	304.681	289.211	226.424	297.448	301.888	106.030	118.086	130.286	136.541	190.972	121.285	117.155	114.004	129.880	192.643	121.023	117.370	50.707
67.000	313.610	301.960	289.140	282.551	228.191	297.782	302.413	304.538	289.713	226.567	297.448	302.103	106.126	118.134	130.143	136.326	190.972	121.476	117.227	114.362	129.999	192.786	121.071	117.299	44.300
68.000	313.682	301.482	289.355	282.598	228.621	298.140	302.652	305.063	289.689	226.520	297.686	301.626	106.102	118.254	130.357	136.541	191.068	121.214	116.821	114.147	129.617	192.691	121.023	117.490	29.952
69.000	313.873	301.745	289.211	282.765	228.191	297.400	302.389	305.135	289.975	226.376	297.567	301.840	106.174	118.182	130.166	136.469	190.972	121.166	116.917	114.314	129.402	192.786	121.142	117.418	33.066
70.000	313.276	301.482	289.737	282.097	227.976	297.806	302.437	304.920	290.214	226.902	297.639	302.079	106.174	118.182	130.190	136.421	191.044	121.238	116.797	114.219	129.283	192.810	121.190	117.227	47.729
71.000	313.037	301.626	289.593	282.551	228.382	298.259	302.294	304.443	290.405	226.544	297.304	301.697	106.174	118.134	130.143	136.350	191.068	121.238	117.060	114.171	129.068	192.786	120.999	117.370	48.722
72.000	313.634	301.626	289.402	282.336	227.737	297.877	302.389	304.848	290.429	226.448	297.639	301.745	106.174	118.373	130.095	136.564	191.139	121.238	116.845	114.123	128.949	192.882	120.999	117.394	33.968
73.000	313.347	301.864	289.641	282.431	228.000	297.854	302.652	304.968	290.524	226.520	297.830	301.745	106.317	118.206	130.214	136.564	191.115	121.071	116.773	114.076	128.830	192.954	120.975	117.370	29.591
74.000	313.849	301.482	289.378	282.431	228.406	298.045	302.533	304.968	290.978	226.018	297.710	301.936	106.197	118.110	129.928	136.541	191.091	121.214	116.750	114.147	128.639	192.954	121.047	117.418	44.481
75.000	313.753	300.862	289.307	282.360	228.191	297.997	302.652	305.111	291.455	226.544	297.663	301.936	106.030	118.086	130.143	136.517	191.187	121.190	116.869	114.267	128.615	193.001	120.999	117.394	50.752
76.000	313.395	301.554	289.498	282.145	228.071	298.140	302.891	305.063	291.073	226.114	297.949	302.103	106.221	118.134	130.286	136.779	191.259	121.262	116.582	114.100	128.591	193.001	121.023	117.251	37.803
77.000	313.896	301.626	289.164	282.813	228.000	298.092	302.891	304.777	291.455	226.400	297.806	301.888	106.436	118.158	130.119	136.636	191.259	121.190	116.487	114.123	128.495	192.954	121.047	117.346	28.418
78.000	312.512	301.649	289.713	282.169	227.618	297.806	302.389	304.681	290.954	226.424	298.045	302.222	106.174	118.015	129.880	136.660	191.187	121.071	116.582	114.147	128.495	193.145	121.214	117.370	40.104
79.000	313.491	301.387	289.832	282.789	228.119	297.639	302.819	304.753	291.455	226.209	297.472	301.912	106.030	118.206	130.262	136.612	191.259	121.166	116.511	114.147	128.280	193.145	121.190	117.299	51.158
80.000	314.087	301.458	289.737	282.598	228.215	297.949	303.368	305.230	291.718	225.923	297.567	301.554	106.293	118.086	130.286	136.708	191.330	121.142	116.463	114.171	128.304	193.097	121.118	117.418	41.593
81.000	314.278	302.103	289.665	282.670	228.024	298.283	303.201	304.896	291.503	225.803	297.424	301.626	106.006	118.206	130.143	136.827	191.330	121.118	116.630	114.243	128.233	193.121	121.023	117.442	28.554
82.000	313.491	301.339	289.450	281.906	227.976	297.830	302.915	304.872	291.551	226.209	297.663	302.031	106.126	118.158	130.071	136.779	191.091	121.118	116.439	114.171	128.352	193.288	121.095	117.251	35.412
83.000	313.013	302.055	290.071	282.240	227.666	297.782	302.557	304.514	291.217	225.851	298.188	301.936	105.959	118.086	130.119	136.755	191.282	121.023	116.320	114.076	128.066	193.121	120.951	117.227	50.211
84.000	313.085	301.267	289.975	282.288	227.809	297.949	302.867	305.302	291.455	225.899	297.782	301.864	106.341	118.254	130.143	136.708	191.306	121.071	116.368	114.267	127.994	193.216	120.951	117.275	44.797
85.000	313.276	301.339	289.474	282.002	227.403	298.140	302.962	305.016	291.455	226.209	298.116	302.294	105.839	118.134	130.119	136.684	191.259	121.142	116.463	114.267	128.161	193.336	120.999	117.179	29.952
86.000	314.040	301.530	289.617	282.503	228.071	298.403	303.416	304.777	291.909	226.066	297.495	301.864	105.935	118.206	130.023	136.588	191.235	121.023	116.368	114.458	127.970	193.288	120.951	117.132	32.885
87.000	313.658	301.076	289.355	282.407	227.689	298.116	303.703	304.896	291.670	226.090	297.758	301.649	106.197	118.110	129.999	136.851	191.354	121.047	116.296	114.123	127.827	193.192	121.047	117.418	47.820
88.000	313.682	301.530	289.235	282.049	227.594	298.188	302.986	304.944	291.885	225.994	297.663	301.721	106.078	117.991	130.047	136.612	191.282	121.166	116.248	114.195	127.851	193.240	120.832	117.203	48.316
89.000	313.562	301.435	289.737	282.145	227.642	298.259	302.915	304.681	291.790	226.066	297.734	302.055	105.839	118.158	129.975	136.755	191.306	121.047	116.177	114.147	127.660	193.264	120.975	117.203	33.246
