-----------------------------------------------------
BloodHound 307 VOC Analyser V2017.1
RoboScientific Ltd 
Espace North
Wisbech Road
Littleport
Cambridgeshire, UK
CB6 1RA 
-----------------------------------------------------
Date = 03/03/2021
Time = 11:23:51
Data is protected by RoboScientific Limited
-----------------------------------------------------
Name of the experiment = "7271N"
-----------------------------------------------------
Repeat No. = 1/4
-----------------------------------------------------
Experimental Time (in sec) and Flow Profile :
-----------------------------------------------------
Baseline = 2.00
Absorb = 4.00
Pause = 1.00
Desorb = 5.00
Flush = 18.00
Wait = 5.00
Higher Flow (V) = 4.00
Medium Flow (V) = 3.00
Low Flow (V) = 1.00
-----------------------------------------------------
Total Profile Time = 35 in sec
-----------------------------------------------------
Acquired data point per second = 4
--------------------------------------------------
Total data point stored  = 120
-----------------------------------------------------
Acquired sensor responses from 24 sensors
-----------------------------------------------------

Data Points	 Sen-1	 Sen-2	 Sen-3	 Sen-4	 Sen-5	 Sen-6	 Sen-7	 Sen-8	 Sen-9	 Sen-10	 Sen-11	 Sen-12	 Sen-13	 Sen-14	 Sen-15	 Sen-16	 Sen-17	 Sen-18	 Sen-19	 Sen-20	 Sen-21	 Sen-22	 Sen-23	 Sen-24	Humidity (%r.h.)
0.000	313.300	302.079	289.283	281.643	226.830	298.235	305.159	304.395	295.132	226.973	297.352	302.127	106.150	117.322	130.166	137.472	192.357	120.736	114.123	114.410	124.437	191.664	121.500	116.821	49.399
1.000	313.801	302.270	289.689	281.023	226.902	298.379	305.660	304.801	295.609	227.355	296.946	302.318	106.006	117.394	130.119	137.782	192.572	120.784	114.028	114.386	124.437	191.736	121.405	117.060	47.549
2.000	313.467	302.270	289.211	281.524	226.353	298.665	305.374	304.586	295.275	227.116	297.304	302.533	106.174	117.466	130.166	137.782	192.500	120.832	113.861	114.171	124.317	191.903	121.787	117.060	32.750
3.000	313.849	302.557	289.307	281.476	226.735	298.212	305.183	304.657	295.299	227.212	296.922	302.413	106.006	117.346	130.166	137.663	192.428	120.832	113.885	114.338	124.246	191.808	121.620	116.988	30.223
4.000	313.467	302.079	289.235	281.381	226.615	298.307	305.493	304.825	295.538	227.212	297.137	301.984	105.959	117.466	130.143	137.734	192.595	120.832	114.028	114.553	124.508	191.712	121.476	116.988	45.067
5.000	313.873	302.007	289.760	281.429	226.854	298.331	305.230	304.634	295.562	227.260	296.994	302.103	106.006	117.442	130.143	137.615	192.643	120.760	113.909	114.434	124.341	191.784	121.620	117.036	50.527
6.000	313.873	302.127	289.092	281.452	226.758	298.498	305.469	304.825	295.299	227.069	297.209	302.389	106.030	117.537	130.190	137.758	192.428	120.904	114.004	114.410	124.222	191.760	121.429	116.988	38.299
7.000	313.658	302.437	289.546	281.620	226.663	298.808	305.421	304.777	294.869	226.782	296.970	301.960	106.221	117.394	129.928	137.663	192.572	120.880	114.100	114.482	124.485	191.808	121.524	116.893	28.283
8.000	313.347	302.557	289.951	281.429	226.711	298.761	305.278	304.753	295.323	227.021	297.090	302.103	106.054	117.442	130.095	137.782	192.667	120.736	113.932	114.362	124.389	191.903	121.381	116.988	39.112
9.000	313.491	302.127	289.474	281.572	226.758	298.522	305.350	304.729	295.275	226.806	297.018	302.389	105.983	117.490	130.166	137.710	192.476	120.713	113.813	114.314	124.294	191.784	121.548	116.845	51.113
10.000	313.658	302.557	289.784	281.596	226.878	298.498	305.517	304.514	295.227	227.093	297.376	303.034	106.006	117.275	130.238	137.734	192.428	120.665	113.909	114.243	124.222	191.426	121.333	116.511	43.578
11.000	311.056	302.294	289.307	281.405	227.164	298.665	305.636	305.016	295.108	228.835	298.045	303.583	108.871	116.941	130.119	137.400	191.593	120.522	114.100	114.028	124.413	190.041	120.474	115.699	29.230
12.000	306.782	301.435	289.808	282.216	228.573	299.071	305.732	305.565	293.222	229.480	297.949	302.676	112.619	117.704	129.880	137.209	190.757	120.307	114.052	113.741	126.203	189.158	120.545	116.272	33.336
13.000	297.209	300.432	289.593	282.216	229.050	299.047	305.183	305.589	289.450	230.244	297.090	301.291	121.691	118.970	129.570	136.684	189.635	120.283	114.171	113.718	129.402	188.871	121.309	117.657	48.361
14.000	287.254	297.973	289.784	282.598	229.886	298.426	304.944	305.398	284.842	230.530	296.445	299.692	132.697	121.357	129.355	136.230	189.014	120.641	114.601	113.980	133.437	188.967	122.694	119.471	47.774
15.000	274.935	295.681	289.880	282.933	230.912	297.663	304.395	304.275	278.755	229.886	294.201	297.639	144.228	124.174	129.474	135.944	188.083	121.667	115.150	114.673	138.737	189.134	124.246	121.667	33.291
16.000	262.927	292.577	289.689	283.315	231.963	296.206	303.774	304.347	273.479	229.313	292.172	295.132	155.830	126.800	129.331	135.753	187.678	123.052	115.866	115.198	144.252	189.516	126.275	123.935	30.358
17.000	251.491	289.498	289.689	283.004	232.202	295.060	302.843	303.416	268.012	229.050	288.662	291.742	167.695	130.143	129.546	135.610	187.057	124.413	116.869	115.914	149.504	190.471	129.856	127.182	44.255
18.000	240.891	285.654	289.641	283.434	232.345	292.458	300.909	302.127	262.688	227.833	285.535	288.805	179.561	133.986	129.617	135.777	186.699	126.394	118.301	117.060	155.401	191.354	133.342	130.334	48.857
19.000	231.079	281.978	289.474	282.813	232.560	290.429	299.716	301.076	257.746	226.591	280.808	285.392	189.038	137.830	129.689	135.944	186.555	128.424	119.543	118.182	160.796	192.548	137.997	133.867	39.021
20.000	221.960	277.776	289.450	282.575	232.894	287.946	297.901	299.286	252.207	225.087	275.985	281.524	197.728	142.270	130.023	136.087	186.174	130.859	121.453	119.280	166.120	193.646	142.604	137.376	30.764
21.000	218.379	272.715	289.259	282.789	233.276	285.774	295.920	298.116	246.955	223.798	271.068	277.800	201.381	146.305	130.143	136.374	186.078	133.365	123.744	121.142	171.300	195.365	147.260	140.886	38.435
22.000	224.228	268.728	288.638	282.049	233.204	282.479	292.816	296.111	242.921	221.912	265.338	274.267	195.842	150.698	130.525	136.851	185.863	136.350	126.371	122.885	176.171	196.940	152.655	144.490	47.052
23.000	229.790	264.264	288.734	281.667	233.515	280.020	290.405	294.320	238.218	220.647	260.253	270.542	189.922	155.830	131.002	137.448	186.006	139.262	129.235	124.580	180.897	198.659	158.910	149.026	43.127
24.000	234.446	259.704	288.256	281.309	233.228	276.726	286.728	292.243	234.470	218.832	254.237	266.150	185.004	160.462	131.575	138.140	186.030	142.676	132.506	126.442	184.455	200.211	164.902	152.775	34.464
25.000	239.053	254.666	287.134	279.972	232.846	273.192	283.267	290.524	232.369	217.185	248.483	262.163	180.539	164.544	132.076	139.143	186.269	145.827	136.302	128.567	187.105	201.524	170.154	156.451	35.908
26.000	239.101	256.147	287.015	279.662	232.512	272.691	281.954	290.930	231.318	216.994	246.764	262.903	181.017	163.947	132.387	139.047	186.532	146.520	137.567	128.209	187.940	202.049	172.136	156.069	44.210
27.000	237.812	256.911	287.206	280.354	232.727	273.694	282.694	291.742	231.772	216.517	247.481	264.192	182.783	162.634	132.482	139.000	186.794	145.851	137.281	127.278	187.964	202.097	171.324	154.804	44.616
28.000	236.260	258.128	286.060	280.020	232.321	273.813	282.670	292.721	231.939	217.209	248.340	265.147	184.144	161.488	132.673	138.880	186.937	145.183	136.875	126.967	187.988	202.264	171.157	154.088	36.901
29.000	236.523	258.892	286.943	279.972	232.416	274.362	282.384	292.386	231.151	216.899	247.743	265.266	182.927	161.321	132.769	138.618	186.794	144.944	137.137	126.729	188.179	202.384	171.133	153.658	33.878
30.000	240.629	254.977	286.848	279.972	232.488	272.595	280.593	291.073	231.079	216.779	243.637	261.924	178.988	164.735	132.936	139.023	186.866	146.329	138.952	128.161	188.107	201.978	174.858	156.666	41.007
31.000	255.621	268.012	286.323	279.089	232.464	269.396	276.176	288.495	231.438	217.567	240.247	272.094	161.727	150.817	133.270	139.907	186.937	149.862	143.368	130.668	187.749	201.787	178.749	146.281	45.248
32.000	287.683	284.270	285.821	277.609	232.273	266.126	271.951	288.185	232.058	217.472	249.080	284.484	131.479	134.511	133.795	140.671	187.033	153.467	147.785	130.716	187.105	201.763	168.627	134.129	41.142
33.000	298.737	292.577	285.583	277.728	231.772	264.407	269.372	290.715	231.127	217.376	261.876	291.073	120.211	127.373	134.273	141.459	187.510	154.971	150.316	128.209	187.582	202.002	156.690	128.042	31.125
34.000	304.920	296.755	284.962	277.131	231.318	266.006	270.733	293.891	231.199	218.212	273.908	294.989	114.553	123.148	135.132	141.673	187.725	153.586	149.265	125.153	188.107	201.166	145.111	124.317	35.412
35.000	308.191	298.617	284.174	277.275	230.888	269.874	273.908	296.851	232.798	219.716	281.118	296.779	111.092	121.047	135.562	141.530	187.916	149.408	145.278	122.384	186.579	199.280	137.376	122.264	47.774
36.000	310.530	300.336	284.365	277.848	230.817	274.887	279.089	298.856	237.287	222.103	286.585	297.901	109.015	119.877	135.872	141.053	187.988	144.252	140.408	120.354	181.590	197.227	132.052	120.832	47.052
37.000	311.247	300.838	283.983	278.230	231.223	279.614	283.816	300.766	243.494	223.679	290.095	299.071	108.179	119.161	135.610	140.217	188.060	139.596	136.015	118.827	175.693	195.198	128.806	120.163	32.299
38.000	312.560	301.363	284.341	278.993	231.223	284.246	288.137	301.578	249.319	225.636	291.718	300.098	107.511	118.707	135.538	139.644	187.988	135.108	131.599	117.490	169.104	193.240	126.896	119.471	30.764
39.000	312.631	301.172	284.341	279.781	230.888	287.182	290.859	302.533	255.144	227.045	293.127	300.098	107.152	118.373	135.156	138.856	187.940	131.861	128.615	116.726	162.682	191.832	125.368	118.970	45.112
40.000	313.133	301.984	284.819	280.641	230.912	290.071	293.294	302.819	260.348	227.952	294.822	300.694	106.818	118.063	134.488	138.283	188.274	129.283	126.108	116.057	157.311	191.044	124.365	118.636	50.301
41.000	313.514	301.984	285.535	281.142	230.698	291.623	295.347	303.559	264.240	228.740	295.132	300.766	106.508	117.824	134.153	137.901	188.418	127.636	123.983	115.580	153.515	190.184	123.792	118.349	37.668
42.000	313.419	302.222	285.797	281.285	230.936	292.888	296.922	303.798	268.203	229.456	295.609	301.435	106.603	117.967	133.652	137.710	188.704	126.156	122.503	115.222	149.719	189.778	123.291	118.230	28.418
43.000	312.870	302.007	286.418	281.954	230.220	293.962	298.068	303.822	271.473	229.241	295.729	301.554	106.627	117.561	133.174	137.281	188.728	125.320	121.453	115.078	146.567	189.516	122.957	117.848	38.976
44.000	312.607	302.198	286.681	281.620	229.934	294.583	298.999	303.798	273.455	229.790	296.159	301.697	106.341	117.704	132.864	137.185	189.134	124.580	120.307	114.864	143.774	189.325	122.766	117.848	51.203
45.000	312.416	301.936	287.206	281.834	229.552	295.036	299.429	303.989	275.651	229.766	296.349	301.864	106.150	117.513	132.602	137.018	189.158	123.816	119.519	114.864	141.554	189.277	122.575	117.776	43.082
46.000	313.610	302.628	287.803	282.002	230.005	295.633	300.312	304.156	278.062	229.671	296.564	301.912	106.030	117.657	132.220	137.018	189.444	123.530	119.113	114.840	139.692	189.420	122.431	117.394	29.005
47.000	313.538	301.840	287.588	281.978	229.480	296.326	300.885	304.514	280.259	229.957	296.636	301.673	106.078	117.633	131.957	137.066	189.635	123.004	118.612	114.625	137.949	189.277	122.121	117.561	34.735
48.000	313.180	302.461	287.922	282.336	229.599	296.397	301.220	304.084	280.879	229.480	296.421	301.697	106.221	117.442	131.766	136.899	189.659	122.813	118.063	114.744	136.875	189.373	122.169	117.322	49.308
49.000	313.610	302.175	288.161	282.169	229.170	296.612	301.602	304.777	282.455	229.766	296.469	302.389	106.317	117.418	131.551	136.899	189.898	122.599	117.752	114.553	135.657	189.420	122.026	117.155	46.511
50.000	313.371	302.461	288.352	281.715	229.074	296.564	302.031	304.514	284.031	229.098	296.851	301.936	106.269	117.490	131.265	137.042	190.065	122.288	117.346	114.625	134.750	189.587	122.169	117.394	31.622
51.000	313.777	302.079	288.376	282.216	229.217	297.137	302.389	304.657	284.699	229.384	296.636	301.745	106.126	117.513	131.312	137.185	190.566	122.097	117.060	114.625	133.867	189.683	122.217	117.418	30.494
52.000	313.443	302.366	288.471	282.312	228.310	296.731	302.533	304.705	285.774	229.217	296.588	301.721	106.102	117.370	131.074	137.185	190.638	122.073	116.893	114.434	132.960	189.635	122.073	117.299	44.842
53.000	313.491	302.198	288.710	282.002	228.310	297.448	302.700	304.466	286.442	229.241	296.970	302.031	106.030	117.537	130.978	137.114	190.853	121.882	116.630	114.458	132.243	189.564	121.978	117.227	50.933
54.000	314.111	302.342	288.543	281.930	228.525	297.591	302.939	304.729	287.588	229.384	296.779	301.793	106.197	117.537	130.811	136.946	190.853	121.811	116.559	114.601	131.909	189.683	121.954	117.155	38.299
55.000	313.300	302.533	288.662	281.763	227.713	297.519	303.392	304.514	287.612	229.361	296.875	301.649	106.412	117.466	130.716	137.209	191.044	121.691	116.439	114.553	131.456	189.874	121.930	117.155	28.373
56.000	313.371	302.437	288.805	281.930	227.952	297.376	302.891	304.323	288.328	229.193	297.185	301.960	106.221	117.394	130.668	137.090	191.163	121.715	116.248	114.410	131.002	189.922	122.002	117.084	38.029
57.000	313.753	302.007	288.853	282.025	228.048	297.663	303.655	304.681	289.020	228.931	296.875	302.031	106.078	117.633	130.596	137.090	191.115	121.524	115.914	114.410	130.501	190.065	122.026	117.227	50.482
58.000	313.705	302.676	289.044	281.787	228.024	297.830	303.392	304.347	289.283	229.098	296.636	302.103	106.245	117.513	130.525	137.066	191.259	121.524	115.914	114.386	130.071	190.065	121.882	117.132	44.887
59.000	313.133	302.533	289.187	281.739	227.713	297.543	303.440	304.395	289.617	228.931	297.161	302.055	106.197	117.442	130.501	137.352	191.306	121.500	115.747	114.482	129.880	190.137	121.858	117.155	30.810
60.000	313.873	302.318	288.949	282.121	227.880	297.615	303.893	305.111	290.166	228.597	297.113	301.984	106.126	117.418	130.381	137.233	191.259	121.309	115.651	114.553	129.570	190.351	121.739	117.108	30.764
61.000	313.682	302.318	289.187	281.978	227.880	297.973	303.846	304.610	289.999	228.859	296.731	301.793	106.197	117.346	130.477	137.233	191.497	121.429	115.508	114.458	129.140	190.328	121.787	117.227	45.293
62.000	313.658	302.270	289.092	281.548	227.785	298.331	303.798	304.562	290.477	228.406	296.946	302.222	106.341	117.466	130.429	137.090	191.450	121.333	115.580	114.553	129.164	190.495	121.906	117.179	50.617
63.000	313.347	301.960	289.140	281.524	227.403	297.854	303.917	304.729	290.954	228.501	296.540	302.198	105.863	117.322	130.238	137.328	191.521	121.285	115.341	114.529	128.973	190.518	121.787	117.179	37.532
64.000	313.729	302.461	289.211	281.739	227.570	297.973	303.893	304.466	290.715	228.525	296.970	301.888	105.839	117.370	130.334	137.376	191.593	121.214	115.436	114.362	128.877	190.518	121.835	117.179	28.463
65.000	313.705	302.437	289.355	281.834	227.236	298.188	304.084	304.610	291.193	228.692	296.899	302.246	106.412	117.442	130.429	137.281	191.617	121.214	115.293	114.458	128.543	190.542	121.882	117.227	40.104
66.000	313.467	302.127	289.044	281.452	227.140	297.472	304.013	305.016	291.670	228.501	296.636	301.721	106.030	117.275	130.405	137.519	191.521	121.142	115.174	114.362	128.233	190.709	121.715	117.036	51.294
67.000	313.777	302.198	289.068	281.763	226.997	298.188	304.347	304.466	291.814	228.835	297.137	301.769	106.197	117.442	130.262	137.400	191.712	121.190	115.198	114.458	127.922	190.590	121.596	117.060	42.360
68.000	313.610	302.485	289.546	281.763	227.451	297.997	304.037	304.443	291.837	228.430	297.137	302.222	105.911	117.346	130.381	137.543	191.736	121.214	115.150	114.410	127.851	190.638	121.811	117.108	28.779
69.000	313.801	302.318	289.259	281.357	227.451	298.331	304.562	304.896	292.315	228.740	296.684	301.817	106.174	117.322	130.405	137.448	191.664	121.166	115.102	114.410	127.564	190.805	121.954	117.060	34.194
70.000	313.276	302.127	289.307	281.811	227.689	297.830	304.323	304.228	292.315	228.453	297.113	302.294	106.317	117.370	130.310	137.424	191.784	120.999	115.055	114.338	127.540	190.829	121.882	117.084	48.722
71.000	314.111	302.437	289.187	281.643	227.212	298.450	304.538	304.538	292.434	228.549	296.731	302.007	106.269	117.418	130.310	137.328	191.760	121.142	115.031	114.434	127.325	190.733	121.667	117.179	48.541
72.000	313.443	302.198	289.450	281.285	227.116	297.877	304.729	304.825	292.792	228.262	297.042	302.342	106.293	117.394	130.429	137.496	191.903	121.023	114.887	114.434	127.397	190.853	121.811	117.132	33.291
73.000	313.586	302.604	289.307	281.691	227.260	298.188	304.848	304.347	292.339	227.928	296.851	302.175	105.959	117.466	130.119	137.519	191.736	121.095	114.935	114.458	127.111	190.853	121.763	117.012	29.772
74.000	314.040	302.771	289.522	281.667	227.355	297.734	304.419	304.586	292.816	228.167	297.018	301.960	106.221	117.394	130.334	137.496	191.832	120.904	114.911	114.482	127.230	190.829	121.715	117.132	43.172
75.000	313.443	302.604	289.092	281.309	227.093	298.068	304.562	304.705	292.434	228.167	297.400	302.270	105.935	117.418	130.143	137.543	191.927	121.095	114.864	114.482	126.920	190.900	121.787	117.132	51.339
76.000	313.658	302.198	289.426	281.596	227.140	298.116	304.681	304.490	292.912	228.525	297.113	302.222	106.102	117.513	130.286	137.543	191.951	120.951	114.840	114.434	126.896	190.924	121.715	117.036	41.187
77.000	313.443	302.342	289.569	281.381	227.284	298.259	304.586	304.562	293.055	228.024	296.922	302.246	105.983	117.299	130.334	137.567	191.951	120.927	114.816	114.458	126.848	190.972	121.811	116.941	28.554
78.000	313.634	302.222	289.713	281.285	227.284	298.522	304.705	304.299	292.816	228.143	297.018	301.817	105.935	117.418	130.119	137.496	191.975	120.975	114.816	114.338	126.800	190.877	121.739	117.084	35.457
79.000	313.896	302.079	289.713	281.214	227.021	298.212	304.801	304.562	293.318	228.095	297.185	302.485	106.006	117.466	130.262	137.591	192.118	120.951	114.744	114.291	126.776	190.853	121.763	117.108	49.805
80.000	313.968	302.389	289.044	281.667	227.307	298.403	304.848	304.299	292.768	228.119	297.018	302.103	106.174	117.418	130.262	137.472	192.023	121.047	114.840	114.386	126.585	191.020	121.596	116.964	46.511
81.000	313.514	302.413	289.569	281.596	227.212	298.450	304.729	304.657	293.628	228.167	297.113	302.151	106.197	117.490	130.286	137.567	192.046	120.999	114.840	114.314	126.585	191.068	121.691	116.964	31.351
82.000	313.992	302.246	289.378	281.787	227.355	298.617	304.992	304.753	293.127	228.382	297.042	301.984	106.174	117.561	130.166	137.591	192.166	120.951	114.816	114.386	126.538	191.068	121.620	117.036	30.404
83.000	313.705	302.055	289.331	281.452	226.711	298.474	304.777	304.610	293.914	228.048	296.994	302.103	105.983	117.418	130.095	137.615	192.094	120.904	114.577	114.386	126.394	191.139	121.596	116.941	45.248
84.000	314.040	302.198	289.378	281.476	226.758	298.570	304.729	304.419	293.676	228.048	297.042	302.270	106.078	117.322	130.166	137.591	192.094	120.975	114.696	114.386	126.418	191.139	121.548	117.036	50.482
85.000	313.801	302.151	289.211	281.261	227.212	298.570	305.039	304.848	293.532	228.262	296.922	302.055	106.317	117.394	130.262	137.567	192.190	120.975	114.577	114.458	126.323	191.187	121.644	116.988	37.668
86.000	313.514	302.604	289.450	281.285	226.902	298.068	304.896	304.777	293.580	227.833	297.400	302.342	106.102	117.442	130.381	137.591	192.046	121.071	114.625	114.410	126.394	191.211	121.548	116.964	28.148
87.000	313.705	302.342	289.068	280.999	226.926	298.259	304.801	304.323	293.580	228.215	297.400	302.413	106.484	117.609	130.262	137.591	192.214	120.975	114.553	114.434	126.275	191.306	121.835	117.060	38.976
88.000	313.300	301.984	289.283	281.357	227.021	297.877	304.514	304.634	294.010	227.952	297.090	302.246	106.174	117.370	130.334	137.710	192.142	120.832	114.553	114.314	126.275	191.163	121.763	117.012	51.203
89.000	313.538	302.413	289.665	281.238	226.949	298.235	304.825	304.657	293.747	227.260	297.137	302.389	105.839	117.490	130.095	137.615	192.285	120.999	114.553	114.458	126.108	191.211	121.620	117.084	42.676
