-----------------------------------------------------
BloodHound 307 VOC Analyser V2017.1
RoboScientific Ltd 
Espace North
Wisbech Road
Littleport
Cambridgeshire, UK
CB6 1RA 
-----------------------------------------------------
Date = 03/03/2021
Time = 10:50:18
Data is protected by RoboScientific Limited
-----------------------------------------------------
Name of the experiment = "859N"
-----------------------------------------------------
Repeat No. = 4/4
-----------------------------------------------------
Experimental Time (in sec) and Flow Profile :
-----------------------------------------------------
Baseline = 2.00
Absorb = 4.00
Pause = 1.00
Desorb = 5.00
Flush = 18.00
Wait = 5.00
Higher Flow (V) = 4.00
Medium Flow (V) = 3.00
Low Flow (V) = 1.00
-----------------------------------------------------
Total Profile Time = 35 in sec
-----------------------------------------------------
Acquired data point per second = 4
--------------------------------------------------
Total data point stored  = 120
-----------------------------------------------------
Acquired sensor responses from 24 sensors
-----------------------------------------------------

Data Points	 Sen-1	 Sen-2	 Sen-3	 Sen-4	 Sen-5	 Sen-6	 Sen-7	 Sen-8	 Sen-9	 Sen-10	 Sen-11	 Sen-12	 Sen-13	 Sen-14	 Sen-15	 Sen-16	 Sen-17	 Sen-18	 Sen-19	 Sen-20	 Sen-21	 Sen-22	 Sen-23	 Sen-24	Humidity (%r.h.)
0.000	313.825	301.220	289.426	283.100	227.833	298.116	302.771	305.350	292.506	225.971	298.785	302.222	106.102	118.397	130.023	136.779	191.235	120.951	116.797	113.718	127.636	193.407	120.092	116.917	50.617
1.000	313.634	301.482	289.808	282.312	227.880	298.140	302.676	305.541	292.363	225.612	298.522	302.031	106.054	118.421	129.880	136.779	191.306	121.166	116.821	113.765	127.516	193.503	119.996	116.988	36.404
2.000	313.705	301.530	289.593	282.002	228.000	298.235	302.676	305.780	292.625	225.899	298.761	302.270	106.245	118.492	129.975	136.779	191.235	120.975	116.726	113.694	127.493	193.527	120.116	116.869	28.869
3.000	314.040	301.029	289.474	282.360	228.024	298.164	302.819	305.708	292.458	225.780	298.331	302.103	106.102	118.373	130.166	136.803	191.259	121.023	116.630	113.622	127.397	193.407	120.068	116.941	43.262
4.000	313.634	301.435	289.331	282.049	228.048	298.092	303.106	305.565	292.506	225.899	298.570	302.007	106.126	118.421	130.071	136.779	191.187	121.047	116.630	113.670	127.588	193.503	119.996	117.012	50.888
5.000	313.395	301.148	289.784	282.527	227.952	298.355	302.795	305.326	292.028	225.803	299.190	302.246	106.150	118.325	129.737	136.875	191.330	121.023	116.702	113.527	127.445	193.407	120.092	116.964	37.217
6.000	313.228	301.220	289.880	282.216	227.952	298.450	302.962	305.612	292.172	225.803	298.594	302.437	105.959	118.397	130.023	136.851	191.235	121.047	116.702	113.646	127.445	193.312	119.972	116.941	28.644
7.000	314.183	301.458	289.546	282.073	228.143	298.235	303.130	305.302	292.410	225.541	298.546	302.103	106.221	118.373	129.928	136.779	191.282	121.071	116.845	113.622	127.349	193.383	120.116	116.988	42.089
8.000	313.944	301.363	289.951	282.288	228.048	298.450	302.843	305.326	292.601	225.756	298.665	302.103	106.221	118.445	129.952	136.899	191.306	120.880	116.630	113.574	127.445	193.383	120.020	116.988	50.978
9.000	313.538	301.363	289.569	282.527	227.976	297.806	302.580	305.541	292.339	225.660	298.737	302.366	106.150	118.373	129.952	136.875	191.378	120.999	116.606	113.550	127.421	193.359	119.925	117.036	38.705
10.000	313.300	301.458	289.808	282.193	228.095	298.092	302.939	305.421	292.124	225.971	299.023	302.819	106.245	118.110	130.047	136.708	191.259	121.118	116.654	113.479	127.421	192.882	119.638	116.272	28.238
11.000	311.032	301.769	289.641	282.336	228.740	298.474	302.748	305.947	291.551	227.451	299.931	303.249	107.940	117.919	129.808	136.612	190.399	120.593	116.559	113.216	128.066	191.545	119.065	115.580	40.149
12.000	305.803	300.718	289.713	283.076	229.695	298.952	302.962	305.970	289.832	228.549	299.572	302.748	113.192	118.612	129.641	135.944	189.373	120.498	116.750	113.097	129.689	190.518	119.065	116.272	51.610
13.000	298.594	299.644	290.429	283.506	230.936	298.689	302.533	306.066	286.967	228.453	298.904	301.554	121.285	120.116	129.498	135.657	188.131	120.593	116.988	113.025	131.957	190.351	120.020	117.704	40.465
14.000	288.233	297.090	290.333	283.697	231.485	298.450	302.222	305.445	283.267	229.122	297.591	299.763	131.312	122.169	129.307	135.323	187.487	121.047	117.442	113.288	135.729	190.447	121.190	119.399	28.328
15.000	276.535	294.798	290.071	283.864	232.512	297.495	301.363	305.445	278.325	228.286	295.681	297.424	142.246	124.747	129.235	135.060	186.842	121.978	118.039	113.956	139.787	190.590	122.790	121.405	39.247
16.000	265.911	292.052	289.951	284.246	233.013	296.015	300.169	304.443	273.455	228.143	292.959	294.893	154.302	127.421	129.116	134.750	186.102	123.386	119.328	114.577	145.207	191.306	125.439	124.055	50.436
17.000	254.666	288.567	290.238	284.771	233.347	294.058	298.785	303.679	268.203	226.997	290.644	292.554	164.974	130.668	129.331	134.822	185.768	124.795	120.569	115.269	150.411	192.118	128.591	126.657	41.232
18.000	243.709	285.129	289.689	284.150	233.682	292.291	296.827	303.249	262.640	226.018	286.561	289.760	176.027	134.273	129.689	134.726	185.290	126.967	122.622	116.368	155.806	193.192	132.052	129.952	29.636
19.000	233.753	281.357	289.737	284.293	234.111	290.262	294.416	301.458	256.887	224.634	282.312	286.036	185.935	137.973	129.975	134.893	185.075	128.877	124.795	117.490	161.297	194.434	136.135	132.816	38.525
20.000	225.016	277.466	289.187	284.246	234.135	287.588	291.766	300.408	252.064	223.583	277.991	282.837	194.672	141.793	130.262	135.180	184.908	131.456	127.731	118.731	166.860	195.675	140.623	136.206	48.767
21.000	218.498	273.980	288.638	283.291	233.944	285.583	288.758	298.856	246.335	222.079	272.930	279.161	201.715	146.018	130.501	135.466	184.741	133.938	130.620	120.259	172.208	197.179	146.018	139.955	41.232
22.000	220.527	269.134	288.973	283.315	234.422	282.455	284.866	297.448	241.226	220.456	267.940	275.985	198.994	150.387	131.097	135.848	184.669	137.018	134.559	121.739	177.173	198.731	151.318	143.894	31.577
23.000	226.376	265.195	287.922	282.360	233.968	279.113	281.047	295.800	236.737	218.689	262.569	272.285	192.977	154.159	131.479	136.350	184.693	139.764	138.331	123.315	182.211	200.116	156.260	146.949	38.525
24.000	232.202	260.969	287.206	281.572	234.446	276.033	276.797	293.891	232.798	217.495	256.576	268.298	188.012	158.647	131.933	137.066	184.932	143.130	142.413	125.272	186.102	201.572	162.085	151.151	46.466
25.000	236.308	256.863	286.442	281.214	234.040	273.049	272.906	292.148	229.790	216.278	250.942	264.526	184.144	162.992	132.602	137.901	185.075	146.591	147.188	127.278	189.444	202.575	168.006	154.565	41.458
26.000	235.377	258.056	287.110	281.381	233.968	272.572	271.640	292.721	229.146	216.755	249.629	265.266	184.502	161.799	132.983	138.307	185.505	147.475	148.286	126.657	190.232	202.527	169.247	153.849	33.652
27.000	233.467	259.775	286.633	281.070	233.419	272.977	272.476	293.103	228.883	216.541	250.298	266.627	186.579	160.128	133.151	137.925	185.529	146.711	147.212	125.654	190.089	202.694	168.316	152.727	38.209
28.000	232.130	260.945	286.347	280.999	233.538	273.335	273.264	294.511	229.313	216.779	250.775	267.773	188.322	158.886	133.413	137.949	185.744	145.780	146.448	125.105	190.208	202.479	167.982	151.796	45.925
29.000	231.461	262.019	286.418	280.760	233.467	273.789	273.192	294.272	229.432	216.732	250.942	267.988	188.871	158.098	133.222	138.021	185.624	145.613	146.305	124.652	190.447	202.431	168.006	151.294	41.728
30.000	236.833	258.486	285.487	280.474	233.467	272.643	271.449	293.580	229.026	217.137	248.340	265.863	183.356	160.987	133.700	138.260	185.839	146.400	148.143	125.941	190.328	201.882	170.751	153.682	33.427
31.000	261.256	270.996	285.869	280.068	233.419	269.182	266.341	290.644	229.552	217.782	244.138	274.553	160.008	149.098	133.938	138.785	185.648	149.743	153.061	128.304	189.731	201.309	174.929	144.849	37.938
32.000	288.925	285.965	285.057	278.970	233.109	265.648	260.921	290.882	229.957	217.997	253.473	285.654	129.188	133.318	134.726	139.787	186.078	153.180	158.576	128.448	189.205	201.285	165.165	132.936	46.782
33.000	300.002	293.007	284.222	278.421	232.679	264.669	258.367	293.580	229.241	217.281	266.651	292.410	118.683	126.562	135.251	140.265	186.460	154.875	161.465	125.726	189.683	202.193	152.130	126.753	42.992
34.000	305.398	296.517	284.413	278.086	232.440	266.054	260.277	296.469	228.955	217.161	277.179	295.347	114.505	123.410	135.872	140.527	186.746	152.966	159.435	123.148	190.184	202.193	141.626	123.577	30.133
35.000	308.191	298.188	283.720	278.707	232.464	270.638	265.791	298.379	230.411	218.522	284.293	297.328	111.617	121.309	136.039	140.432	186.937	149.241	154.661	120.283	188.442	200.450	134.153	121.763	35.367
36.000	309.790	299.071	282.742	278.850	232.297	275.556	271.163	300.217	235.377	220.408	288.877	298.832	109.516	120.354	136.469	140.050	187.009	143.559	147.928	118.659	183.046	198.635	129.665	120.426	49.669
37.000	311.581	299.859	283.386	279.614	232.297	279.901	277.155	301.697	241.584	222.246	292.196	299.405	108.418	119.853	136.326	139.334	186.866	138.570	142.032	117.418	176.911	196.917	126.633	119.662	43.804
38.000	311.891	300.575	283.553	280.330	232.393	284.270	282.002	302.366	248.006	223.822	294.201	300.002	107.940	119.567	136.135	138.832	187.033	135.060	137.710	116.559	170.536	195.508	125.057	119.161	29.276
39.000	312.822	300.671	283.840	280.927	232.225	287.469	286.012	303.392	253.926	225.374	295.060	300.814	107.487	119.280	135.777	138.140	187.057	131.575	133.676	115.747	164.425	193.909	123.816	118.731	34.825
40.000	312.273	300.647	284.986	281.309	231.987	290.071	288.805	303.822	258.677	225.851	295.371	300.575	107.081	119.113	135.419	137.687	187.248	129.331	130.620	115.365	159.483	193.025	122.766	118.492	49.669
41.000	312.894	300.599	285.033	282.121	231.796	291.527	291.026	304.275	262.831	227.284	296.588	301.005	106.747	118.970	134.774	137.137	187.391	127.540	128.615	115.055	155.138	192.404	122.336	118.254	45.112
42.000	313.252	300.790	285.559	281.978	231.605	292.959	292.673	304.753	265.839	227.045	297.113	301.363	106.842	118.755	134.344	136.803	187.487	126.299	126.657	114.649	152.034	191.760	122.073	118.206	29.636
43.000	313.037	300.575	285.797	282.718	231.461	293.891	294.320	304.610	269.062	227.785	297.233	301.363	106.675	118.803	134.034	136.779	187.725	125.272	125.296	114.529	149.003	191.426	121.691	118.110	33.697
44.000	313.371	301.315	286.179	282.407	231.294	294.750	295.108	304.848	271.712	227.880	297.304	301.339	106.675	118.683	133.461	136.564	187.940	124.485	124.341	114.338	146.353	191.330	121.381	117.848	49.263
45.000	313.467	301.315	286.585	282.479	230.960	295.204	296.278	304.992	273.765	227.880	297.304	301.267	106.341	118.564	133.151	136.421	188.083	124.079	123.434	114.195	144.323	191.187	121.214	117.704	45.879
46.000	313.109	300.647	287.349	282.718	231.103	295.729	296.731	305.063	275.269	227.904	297.615	301.840	106.603	118.707	132.840	136.421	188.322	123.673	122.766	114.147	142.891	191.020	120.999	117.681	30.449
47.000	313.562	301.196	286.967	282.956	230.698	296.135	297.472	305.230	276.988	228.095	297.925	301.387	106.460	118.683	132.506	136.302	188.418	123.076	122.217	113.956	141.339	191.068	120.975	117.704	32.163
48.000	313.538	300.885	287.349	283.147	230.268	296.015	297.806	305.135	278.421	228.071	297.734	301.387	106.579	118.564	132.196	136.254	188.704	122.957	121.691	114.004	140.217	191.187	120.999	117.585	47.413
49.000	313.705	301.435	288.018	283.338	230.220	296.159	298.164	305.493	279.662	227.833	297.710	301.626	106.579	118.397	131.885	136.087	188.943	122.670	121.262	113.932	139.047	191.091	120.760	117.179	48.135
50.000	313.204	301.626	287.922	282.789	230.363	296.708	298.403	305.278	280.641	228.143	298.068	301.530	106.556	118.373	131.838	136.135	189.086	122.575	121.047	113.956	138.260	191.115	120.760	117.490	32.073
51.000	313.467	301.315	287.660	282.813	230.005	296.755	298.546	305.159	281.548	228.071	298.259	301.649	106.388	118.492	131.527	136.397	189.182	122.264	120.617	113.789	137.209	191.187	120.760	117.513	31.080
52.000	313.586	301.793	288.280	283.004	229.886	296.827	298.928	305.159	282.073	227.570	298.068	301.602	106.341	118.588	131.503	136.278	189.420	122.193	120.402	113.932	136.469	191.306	120.641	117.418	46.872
53.000	313.514	301.506	288.495	282.670	229.456	297.042	299.238	305.063	282.933	227.689	298.212	301.626	106.245	118.468	131.241	136.326	189.444	122.121	120.092	113.813	135.848	191.330	120.736	117.466	48.587
54.000	313.873	301.339	288.424	282.837	229.623	297.328	299.835	305.254	283.840	228.071	298.140	301.530	106.197	118.468	131.050	136.350	189.659	121.978	119.781	113.861	135.371	191.426	120.593	117.299	32.434
55.000	313.491	301.649	288.614	283.171	229.217	297.615	299.549	305.254	284.461	227.379	297.949	301.554	106.341	118.373	130.906	136.278	189.611	122.002	119.781	113.789	134.702	191.497	120.426	117.251	30.855
56.000	314.302	300.862	288.304	282.575	229.265	297.591	300.384	305.445	285.248	227.857	298.068	301.506	105.959	118.445	130.859	136.254	189.826	121.978	119.519	113.646	134.249	191.545	120.569	117.251	46.646
57.000	313.610	301.506	288.805	282.885	229.337	297.113	300.098	305.350	285.583	227.761	298.140	301.626	106.293	118.516	130.835	136.421	189.850	121.787	119.447	113.718	133.724	191.497	120.450	117.227	48.948
58.000	313.729	301.100	288.614	282.742	229.146	297.304	300.217	305.302	285.941	227.928	298.283	301.793	106.221	118.540	130.859	136.230	189.969	121.835	119.304	113.694	133.556	191.593	120.522	117.322	33.291
59.000	313.634	301.458	288.805	282.718	229.170	297.424	300.575	305.469	286.060	227.451	297.925	302.031	106.460	118.397	130.572	136.302	189.826	121.596	119.018	113.741	133.198	191.712	120.545	117.370	30.178
60.000	313.467	301.482	288.949	282.622	228.907	297.495	300.336	305.111	286.561	227.212	298.068	301.864	106.102	118.397	130.572	136.159	190.089	121.644	119.113	113.885	132.936	191.784	120.426	117.299	45.744
61.000	313.658	301.721	288.853	282.718	228.621	297.639	300.623	305.374	286.776	227.093	298.379	301.936	106.269	118.325	130.405	136.374	190.160	121.620	118.946	113.646	132.387	191.664	120.545	117.155	49.669
62.000	313.705	301.912	288.996	283.195	228.907	297.639	300.312	305.183	287.158	227.260	298.450	301.912	106.484	118.516	130.548	136.302	190.232	121.596	118.874	113.622	132.363	191.903	120.569	117.346	34.554
63.000	313.109	301.649	289.307	282.909	229.146	297.734	300.503	305.135	287.158	227.355	298.045	302.079	106.317	118.397	130.357	136.374	190.447	121.572	118.683	113.574	131.909	191.903	120.498	117.227	29.366
64.000	313.729	301.339	289.402	282.575	228.979	297.758	300.933	305.278	287.540	227.260	298.355	301.984	106.126	118.445	130.357	136.397	190.256	121.476	118.707	113.789	131.766	191.927	120.522	117.203	44.345
65.000	313.777	301.172	289.259	282.622	228.716	297.925	300.957	305.302	288.042	227.284	298.212	301.912	106.150	118.349	130.334	136.374	190.375	121.739	118.659	113.789	131.599	191.975	120.331	117.155	50.301
66.000	313.491	301.291	289.187	282.646	228.334	298.068	300.838	305.111	288.065	227.069	298.259	302.366	106.150	118.397	130.453	136.445	190.495	121.381	118.492	113.670	131.408	191.999	120.474	117.275	35.908
67.000	313.419	301.602	289.307	282.694	228.835	297.400	300.718	305.183	288.137	227.093	298.546	301.864	106.365	118.397	130.334	136.302	190.495	121.524	118.445	113.646	131.121	192.046	120.283	117.251	29.050
68.000	313.634	301.244	288.996	283.147	228.621	298.092	301.482	304.968	288.161	226.735	298.259	301.888	106.269	118.421	130.286	136.350	190.614	121.405	118.421	113.789	130.954	192.166	120.354	117.203	43.669
69.000	313.634	301.124	289.092	282.264	228.406	297.854	301.387	305.374	288.782	227.093	298.474	302.342	105.935	118.301	130.262	136.541	190.662	121.309	118.182	113.765	130.883	192.190	120.402	117.132	50.888
70.000	313.467	301.076	289.283	282.598	228.740	297.997	301.220	305.445	288.901	227.331	298.092	301.626	106.030	118.516	130.334	136.541	190.614	121.238	118.158	113.622	130.620	192.094	120.331	117.084	37.577
71.000	313.777	301.076	289.187	282.288	228.310	297.877	301.291	305.374	288.949	227.093	298.426	302.055	106.102	118.325	130.262	136.421	190.781	121.453	118.110	113.670	130.620	192.381	120.235	117.203	28.554
72.000	313.610	301.029	289.378	282.575	228.740	298.045	301.793	305.326	288.901	226.639	298.307	302.127	105.792	118.492	130.190	136.493	190.566	121.429	118.158	113.622	130.381	192.357	120.307	117.203	42.180
73.000	313.896	301.435	288.782	282.575	228.215	297.734	301.387	305.660	289.593	226.782	298.379	302.079	106.078	118.373	130.262	136.421	190.709	121.214	117.872	113.622	130.525	192.309	120.426	117.036	51.113
74.000	313.538	301.458	289.235	282.551	228.525	297.734	301.387	305.230	289.450	226.902	298.235	302.318	106.341	118.445	130.095	136.421	190.733	121.285	118.039	113.646	130.262	192.237	120.402	117.155	38.525
75.000	313.825	301.506	289.211	282.765	228.477	297.806	301.578	305.207	289.164	226.758	298.546	301.936	105.887	118.468	130.071	136.326	190.853	121.285	117.943	113.550	130.238	192.428	120.331	117.036	28.328
76.000	313.873	301.626	289.474	282.431	228.597	297.877	301.458	305.612	289.760	226.949	298.068	301.721	106.006	118.540	130.119	136.588	190.709	121.190	117.800	113.646	130.023	192.548	120.450	117.179	41.052
77.000	313.753	301.721	289.689	282.336	228.597	297.949	301.530	305.230	289.569	226.448	297.925	301.649	106.293	118.301	130.166	136.517	190.877	121.190	117.848	113.718	130.143	192.452	120.307	117.084	51.339
78.000	314.064	300.862	289.426	283.004	228.549	298.283	301.912	305.207	289.975	226.806	298.283	302.127	105.839	118.564	130.166	136.517	190.757	121.118	117.776	113.694	130.071	192.428	120.307	117.132	39.743
79.000	313.753	301.602	289.784	283.267	228.573	298.045	301.435	305.159	289.474	226.615	298.283	301.936	106.102	118.206	130.190	136.588	190.805	121.095	117.657	113.646	129.904	192.572	120.378	117.179	28.328
80.000	313.562	301.339	289.498	282.646	228.310	298.235	301.435	305.302	289.951	226.615	298.641	301.793	106.102	118.468	130.262	136.493	190.853	121.214	117.561	113.646	129.665	192.476	120.307	117.084	40.149
81.000	313.204	301.482	289.999	282.813	228.501	297.973	301.602	305.063	289.760	226.353	298.594	302.055	106.150	118.397	130.166	136.493	190.829	121.190	117.561	113.646	129.737	192.548	120.140	117.179	51.339
82.000	313.896	300.981	289.235	282.431	228.239	298.235	302.246	305.732	290.023	226.949	298.689	301.960	106.126	118.516	130.190	136.517	190.853	121.309	117.681	113.670	129.593	192.572	120.307	117.108	39.924
83.000	313.944	301.649	289.713	282.288	228.048	297.639	301.864	305.302	290.119	226.544	298.235	301.817	105.768	118.349	130.047	136.612	190.829	121.238	117.657	113.670	129.665	192.524	120.378	117.251	28.283
84.000	313.801	301.387	289.880	282.598	228.358	297.877	302.055	305.111	290.477	226.233	298.426	302.007	106.341	118.492	130.047	136.612	190.900	121.071	117.490	113.574	129.498	192.524	120.331	117.227	40.059
85.000	314.016	301.053	289.211	282.216	228.382	297.877	302.079	305.326	290.142	226.615	298.522	302.151	106.269	118.564	130.190	136.493	190.877	121.190	117.537	113.694	129.259	192.643	120.163	116.893	51.474
86.000	313.347	301.482	289.498	282.407	228.310	298.045	301.960	305.230	290.262	226.735	298.832	302.198	106.102	118.373	130.095	136.708	191.020	121.166	117.609	113.694	129.235	192.667	120.283	117.084	40.375
87.000	313.252	301.912	289.760	282.909	228.501	297.710	301.649	305.063	290.477	226.353	298.331	301.936	106.317	118.325	130.071	136.612	191.020	121.071	117.442	113.741	129.259	192.763	120.307	117.012	28.193
88.000	313.753	301.363	289.259	282.551	228.143	297.734	301.912	305.445	290.620	226.066	298.594	301.673	106.436	118.468	129.999	136.588	190.924	121.309	117.442	113.646	128.973	192.786	120.211	117.203	38.480
89.000	314.278	300.814	289.498	282.336	228.239	298.403	302.485	305.589	290.859	226.496	297.925	301.626	105.935	118.540	130.071	136.517	190.996	121.190	117.561	113.765	129.188	192.786	120.092	117.012	51.294
