-----------------------------------------------------
BloodHound 307 VOC Analyser V2017.1
RoboScientific Ltd 
Espace North
Wisbech Road
Littleport
Cambridgeshire, UK
CB6 1RA 
-----------------------------------------------------
Date = 04/02/2021
Time = 14:53:36
Data is protected by RoboScientific Limited
-----------------------------------------------------
Name of the experiment = "4776P_2"
-----------------------------------------------------
Repeat No. = 2/4
-----------------------------------------------------
Experimental Time (in sec) and Flow Profile :
-----------------------------------------------------
Baseline = 2.00
Absorb = 10.00
Pause = 1.00
Desorb = 5.00
Flush = 10.00
Wait = 5.00
Higher Flow (V) = 4.00
Medium Flow (V) = 3.00
Low Flow (V) = 1.00
-----------------------------------------------------
Total Profile Time = 33 in sec
-----------------------------------------------------
Acquired data point per second = 4
--------------------------------------------------
Total data point stored  = 112
-----------------------------------------------------
Acquired sensor responses from 24 sensors
-----------------------------------------------------

Data Points	 Sen-1	 Sen-2	 Sen-3	 Sen-4	 Sen-5	 Sen-6	 Sen-7	 Sen-8	 Sen-9	 Sen-10	 Sen-11	 Sen-12	 Sen-13	 Sen-14	 Sen-15	 Sen-16	 Sen-17	 Sen-18	 Sen-19	 Sen-20	 Sen-21	 Sen-22	 Sen-23	 Sen-24	Humidity (%r.h.)
0.000	317.048	304.705	315.114	314.851	312.249	315.400	315.448	315.663	314.040	312.536	314.947	315.687	103.261	114.983	104.407	104.001	106.675	103.953	104.025	103.667	105.481	106.436	103.715	103.834	44.571
1.000	316.857	304.872	315.257	314.875	312.440	315.424	315.520	315.400	313.920	312.822	315.090	315.472	103.189	114.935	104.192	104.001	106.556	104.049	104.025	103.548	105.338	106.341	103.715	103.810	53.144
2.000	316.379	304.896	315.162	314.875	312.655	315.472	315.305	315.472	313.944	312.965	315.496	315.568	103.046	114.959	104.431	104.001	106.556	103.834	104.049	103.595	105.386	106.341	103.691	103.691	39.879
3.000	316.690	304.490	315.233	315.233	312.965	315.353	315.544	315.472	313.801	312.965	315.305	315.520	102.951	115.102	104.383	103.977	106.579	103.834	104.049	103.524	105.243	106.293	103.691	103.619	26.659
4.000	316.570	304.729	315.400	315.138	312.297	315.114	315.305	315.448	313.873	312.894	315.210	315.639	102.951	114.887	104.192	103.858	106.556	103.977	104.049	103.595	105.314	106.245	103.619	103.500	35.682
5.000	316.785	304.681	314.947	315.138	312.918	315.544	315.424	315.305	313.753	312.536	315.090	315.639	103.046	114.935	104.240	103.977	106.579	103.834	104.073	103.667	105.290	106.269	103.619	103.739	51.519
6.000	316.141	304.896	315.138	315.090	312.488	315.210	315.233	315.400	313.968	312.822	315.472	315.759	103.166	114.864	104.311	103.882	106.484	103.929	104.097	103.667	105.290	106.197	103.691	103.691	48.451
7.000	316.427	304.443	315.066	314.995	312.607	315.496	315.162	315.448	313.920	313.228	315.472	315.711	103.022	114.935	104.335	103.858	106.699	104.097	104.097	103.643	105.338	106.269	103.619	103.619	31.216
8.000	316.379	304.538	315.233	315.233	312.583	315.233	315.329	315.472	313.849	312.655	315.090	315.759	103.094	114.935	104.335	103.977	106.341	103.882	104.025	103.691	105.386	106.245	103.619	103.643	28.824
9.000	316.499	304.514	314.684	314.708	312.440	315.138	315.138	315.472	314.183	313.133	315.186	315.591	103.022	114.935	104.240	103.906	106.460	103.977	104.073	103.595	105.171	106.341	103.739	103.762	45.428
10.000	316.427	304.968	314.899	314.971	312.631	315.090	315.400	315.663	313.777	312.727	315.138	315.472	103.166	114.673	104.168	103.929	106.365	103.977	104.097	103.548	105.314	106.102	103.691	103.595	52.738
11.000	315.950	304.466	314.971	315.114	312.321	315.019	315.114	315.257	313.753	312.846	315.520	315.472	103.070	115.007	104.264	103.953	106.412	103.858	104.001	103.715	105.410	106.269	103.691	103.786	38.254
12.000	316.809	302.509	314.565	314.708	312.106	315.329	315.042	315.448	313.514	312.321	315.066	315.257	103.142	116.988	104.526	104.049	107.224	104.168	104.288	103.691	105.959	106.842	103.762	103.810	26.478
13.000	316.881	299.596	314.613	314.422	311.127	314.851	315.066	315.305	312.607	311.414	314.899	315.353	103.118	119.447	104.622	104.192	107.821	104.383	104.455	103.739	106.675	107.654	103.977	104.192	38.209
14.000	316.737	296.612	314.541	314.374	310.268	314.183	314.302	315.448	311.605	310.387	314.446	314.756	103.118	122.670	105.052	104.622	108.418	104.479	104.765	103.977	108.060	108.776	104.431	104.431	52.918
15.000	316.379	293.437	313.753	314.040	309.552	314.207	313.849	314.971	309.981	309.265	313.920	314.374	103.166	126.227	105.338	104.837	109.707	105.195	105.672	104.168	109.277	109.850	104.837	105.004	45.383
16.000	316.141	289.450	313.920	314.159	308.788	313.467	312.655	314.684	308.215	307.904	313.371	313.586	103.380	129.856	105.601	105.266	110.662	105.672	106.699	104.335	111.211	111.378	105.625	105.720	28.824
17.000	316.427	285.702	313.061	313.347	307.284	312.822	311.390	314.541	306.161	306.352	312.392	312.703	103.070	133.556	105.983	105.481	111.760	106.341	107.916	104.717	113.097	112.572	106.341	106.365	31.486
18.000	316.308	281.834	313.133	313.419	306.543	312.058	309.504	313.920	303.559	304.634	311.151	311.628	103.070	137.472	106.436	105.720	112.667	107.009	109.778	105.147	115.556	114.362	107.367	107.343	48.316
19.000	316.833	277.776	312.201	312.798	305.541	311.103	307.451	313.538	300.742	303.201	310.101	310.626	103.213	141.721	107.105	106.150	113.765	107.869	112.094	105.434	118.134	115.842	108.728	108.513	50.933
20.000	316.761	273.837	311.987	312.464	304.228	310.124	304.705	313.133	298.140	301.244	308.215	309.122	103.285	145.756	107.343	106.603	114.864	109.038	114.720	106.150	121.309	117.585	110.280	109.946	35.006
21.000	316.451	269.754	311.843	312.106	302.843	308.764	302.079	312.488	295.084	299.692	306.257	307.331	103.237	149.623	107.725	106.985	116.009	110.304	117.442	106.723	124.150	119.519	112.428	111.545	27.696
22.000	316.523	265.982	311.103	311.533	301.984	307.833	299.071	311.485	291.670	297.400	304.204	305.947	102.998	153.682	108.179	107.367	116.964	111.450	120.331	107.558	127.803	121.715	114.696	113.121	40.420
23.000	316.642	262.664	310.220	310.769	301.076	306.400	295.896	310.888	288.352	295.514	301.864	304.132	102.998	157.143	108.847	107.964	117.991	112.954	123.410	108.394	131.074	123.434	116.606	114.792	51.970
24.000	316.714	259.537	309.838	310.077	299.620	304.610	292.912	310.101	285.272	293.891	299.334	302.127	103.142	160.533	109.492	108.513	119.041	114.505	126.609	109.253	134.464	125.989	119.423	116.941	41.593
25.000	316.332	255.788	309.862	310.244	299.071	303.010	289.665	308.764	281.954	291.742	296.922	300.289	102.927	163.685	109.874	109.038	119.996	116.487	129.952	110.304	137.591	127.493	121.763	118.827	29.005
26.000	316.928	253.449	308.764	309.002	298.212	301.124	286.227	307.856	278.564	289.856	294.463	298.379	103.118	166.430	110.471	109.707	120.999	117.967	133.055	111.402	140.886	129.140	124.246	120.450	34.780
27.000	316.666	250.847	307.904	308.382	297.042	299.501	283.195	306.830	275.460	287.683	291.814	296.445	103.022	168.913	111.092	110.280	122.145	119.996	136.541	112.309	143.750	131.121	126.848	122.885	48.812
28.000	316.785	248.603	308.024	307.689	296.111	297.304	279.996	305.374	272.667	286.156	289.187	294.416	103.118	171.635	111.760	110.877	123.052	121.835	139.477	113.598	146.926	133.127	129.761	124.890	46.556
29.000	316.379	246.311	307.140	307.069	295.132	295.060	276.749	304.228	269.659	284.484	286.609	292.577	102.712	173.950	112.476	111.688	123.912	123.768	142.581	115.055	149.814	135.228	132.339	126.824	33.381
30.000	316.905	244.496	306.376	306.520	293.843	292.959	273.574	302.748	266.961	282.431	284.126	290.787	102.998	175.812	113.145	112.476	125.081	125.893	145.398	115.962	152.297	136.732	134.750	128.710	31.306
31.000	317.239	242.205	305.493	305.589	293.079	291.264	271.115	301.936	264.717	280.879	281.500	288.400	103.213	177.651	113.909	113.360	126.132	128.066	148.215	117.322	154.828	138.451	137.519	130.811	44.030
32.000	316.761	240.868	305.016	304.657	291.933	288.901	268.298	300.480	262.306	279.280	279.208	286.585	102.927	179.704	114.840	114.243	127.493	130.286	151.199	118.612	157.382	140.241	140.026	132.816	49.038
33.000	316.642	238.528	303.870	304.252	291.527	287.087	266.102	298.737	259.584	277.251	276.893	284.819	102.903	181.518	115.675	115.078	128.352	132.458	154.159	120.283	159.913	141.864	142.151	134.583	39.788
34.000	316.952	237.501	302.771	303.512	289.808	285.177	263.237	297.304	257.364	275.341	274.362	283.315	103.070	182.879	116.821	115.962	129.522	134.320	156.690	121.811	162.133	143.583	144.586	136.493	30.900
35.000	316.881	235.759	301.840	302.127	288.614	283.028	260.420	296.063	255.550	274.171	272.500	281.190	102.927	184.383	117.513	116.750	130.620	136.135	159.006	123.004	164.138	145.159	146.902	138.260	37.984
36.000	316.857	234.016	301.076	301.339	287.492	281.214	258.056	294.487	253.544	272.524	269.731	279.089	102.855	185.959	118.588	117.704	131.957	138.069	161.560	124.508	166.024	146.615	148.859	140.122	47.684
37.000	316.714	233.133	299.644	300.002	285.988	279.256	255.621	293.127	251.372	271.258	268.298	277.752	103.022	187.343	119.805	118.707	133.174	140.002	163.923	126.227	168.197	148.215	150.912	141.817	43.984
38.000	316.570	231.843	298.212	299.047	284.604	277.275	253.449	291.981	249.343	269.802	266.102	275.890	103.022	188.728	121.023	119.734	134.297	141.602	165.953	127.516	169.940	149.838	153.180	143.464	34.058
39.000	316.475	230.769	297.448	298.116	283.219	275.747	251.109	290.142	247.767	268.609	264.311	274.290	103.237	189.731	122.026	120.880	135.944	143.392	168.125	128.901	171.778	151.080	155.043	145.207	33.878
40.000	316.785	229.456	296.397	297.281	282.575	274.123	249.558	288.686	245.929	266.699	262.139	272.404	102.903	191.068	123.243	121.739	137.233	145.207	170.083	130.477	173.521	152.297	156.547	146.711	43.849
41.000	316.379	228.835	294.678	295.991	281.214	272.619	247.839	287.349	244.592	265.720	260.515	271.306	102.975	191.855	124.580	122.861	138.283	146.735	171.921	132.052	174.905	153.634	158.647	148.215	46.511
42.000	316.451	227.594	293.485	295.108	279.495	271.020	246.263	285.941	243.207	264.311	258.797	269.754	102.784	193.025	126.060	123.983	139.573	148.453	173.640	133.580	176.433	155.066	160.295	149.695	39.112
43.000	316.881	226.854	292.386	293.914	278.015	269.110	244.472	284.484	241.799	263.189	257.149	268.059	103.070	193.718	127.039	125.177	141.077	150.101	174.881	134.989	177.842	156.499	161.990	151.294	33.066
44.000	316.379	225.827	291.097	292.506	276.773	267.272	242.754	282.980	239.960	261.781	255.836	266.842	102.736	194.625	128.448	126.156	142.437	151.581	176.600	136.302	179.370	157.406	163.303	152.631	39.247
45.000	316.594	224.872	289.569	291.264	275.341	266.054	241.369	281.309	238.934	260.587	254.237	265.791	102.951	195.460	129.856	127.493	144.037	153.276	178.415	137.639	180.730	158.504	164.783	153.944	46.105
46.000	316.594	224.634	288.662	290.190	274.076	264.478	240.295	280.116	237.764	259.561	252.542	264.455	102.879	196.057	131.002	128.710	145.445	154.875	179.608	139.095	181.996	159.602	166.311	155.210	42.044
47.000	316.546	223.774	287.278	289.498	272.715	263.452	239.173	278.612	236.952	258.629	251.038	263.046	102.831	196.773	132.411	130.047	147.021	156.499	180.850	140.599	183.261	160.772	167.648	156.690	34.464
48.000	317.000	223.392	285.511	287.922	271.044	261.542	237.716	277.752	235.257	257.627	249.963	261.399	102.855	197.299	133.843	131.026	148.310	157.907	181.924	141.936	184.264	161.942	169.032	157.764	36.630
49.000	316.905	223.010	284.317	286.585	269.683	259.871	236.356	276.296	234.446	256.361	249.032	260.778	102.903	197.752	135.251	132.291	149.623	159.220	183.094	143.249	185.242	162.873	170.417	158.982	44.030
50.000	317.119	223.082	283.935	286.681	269.301	260.277	236.809	276.367	234.660	257.054	249.032	260.515	102.807	197.299	135.633	132.291	150.005	159.364	183.142	142.939	185.195	162.610	170.131	158.815	44.390
51.000	316.475	223.750	284.699	287.087	269.707	260.515	237.525	276.296	235.162	256.958	249.176	260.969	102.927	197.155	135.490	132.148	149.886	158.934	182.927	142.652	184.860	162.491	169.796	158.433	37.803
52.000	316.976	223.583	284.747	287.063	269.731	261.041	237.573	276.797	235.114	256.982	249.510	261.494	103.166	197.036	135.180	132.029	149.790	158.910	182.449	142.342	184.479	162.205	169.725	158.218	34.374
53.000	317.119	223.535	284.270	287.564	270.136	261.088	237.454	277.203	235.783	257.484	249.080	261.542	102.903	197.012	135.347	131.885	149.671	158.647	182.473	142.199	184.479	162.181	169.725	158.313	39.698
54.000	316.785	223.177	283.553	286.490	268.537	259.728	236.881	275.914	234.684	256.266	248.125	260.205	103.118	197.084	136.135	132.602	150.721	159.746	183.237	143.010	185.219	162.825	170.608	159.077	45.473
55.000	316.332	234.708	286.418	289.187	274.076	266.293	246.621	280.163	245.022	264.001	256.911	269.325	103.022	185.362	132.936	129.880	144.968	152.822	172.685	138.976	174.428	154.947	161.488	149.886	42.225
56.000	316.737	252.542	292.506	294.487	282.742	276.630	261.566	287.683	260.277	275.460	270.375	282.360	103.213	168.698	127.564	124.843	136.875	143.297	158.862	132.291	159.984	144.514	149.480	137.615	33.652
57.000	316.379	271.187	298.546	300.026	292.076	287.755	277.060	295.753	276.105	287.397	283.768	294.845	102.927	150.435	121.238	119.209	128.042	132.434	143.631	124.031	144.443	132.530	135.801	125.081	33.787
58.000	316.260	284.461	303.679	304.490	298.832	296.015	288.352	301.745	288.018	296.469	294.058	303.273	102.998	135.968	116.009	114.458	120.474	123.553	131.288	117.275	131.766	122.957	125.129	116.224	46.105
59.000	316.857	294.034	307.116	307.880	304.013	301.936	297.066	306.329	296.803	303.106	301.602	308.620	102.975	126.562	112.524	111.330	115.699	117.752	123.243	113.216	123.577	116.773	117.681	110.566	50.933
60.000	316.523	299.931	309.337	309.910	306.973	305.469	302.055	309.528	302.007	306.567	305.756	311.557	103.333	120.545	110.328	109.253	112.643	113.885	117.919	110.017	117.895	112.787	113.145	107.654	38.344
61.000	316.427	303.655	310.459	311.056	308.788	307.689	304.729	311.294	304.825	309.313	309.074	313.204	103.189	116.941	108.776	107.940	110.710	111.664	115.007	108.370	114.983	110.351	110.065	106.245	27.065
62.000	316.427	305.684	311.987	311.891	310.363	309.217	306.687	312.154	307.116	310.817	310.912	314.278	103.189	114.386	107.892	107.152	109.420	110.065	112.739	106.842	112.667	108.871	108.370	105.338	37.758
63.000	316.666	307.164	312.273	312.560	310.793	310.459	308.310	313.252	308.047	311.557	312.058	314.493	103.166	113.073	107.320	106.460	108.346	108.871	111.378	105.983	111.115	107.654	106.651	104.479	52.512
64.000	316.666	308.262	312.774	313.061	311.652	311.270	309.217	313.873	309.337	312.583	313.252	314.804	103.166	111.927	106.890	106.030	107.678	108.036	110.351	105.195	110.137	107.057	105.744	104.288	46.466
65.000	316.737	309.146	313.324	313.133	311.867	311.819	309.552	314.207	309.623	312.631	313.634	315.305	103.213	111.330	106.579	105.696	107.296	107.558	109.922	104.789	109.349	106.508	104.956	104.264	29.952
66.000	316.355	309.170	313.085	313.777	312.178	312.392	310.101	314.541	310.459	313.204	314.350	315.353	103.261	110.901	106.388	105.505	107.105	107.152	109.397	104.359	108.847	106.174	104.455	104.025	29.591
67.000	316.737	309.384	313.061	313.801	312.488	312.655	310.315	314.756	310.817	313.133	314.446	315.687	103.022	110.542	106.293	105.410	106.723	106.699	109.158	104.168	108.513	105.839	104.120	103.810	46.917
68.000	316.666	309.026	313.371	313.825	312.536	312.870	310.411	315.090	311.509	313.658	314.708	315.591	103.070	110.590	106.341	105.195	106.579	106.532	109.038	104.025	108.060	105.720	103.834	103.619	52.196
69.000	316.379	309.193	313.156	313.849	312.488	313.037	310.387	315.305	311.414	313.562	315.353	315.973	103.309	110.614	106.174	104.908	106.412	105.935	108.728	103.691	107.940	105.744	103.858	103.691	37.397
70.000	317.167	308.501	313.133	314.064	313.085	313.562	311.079	315.830	311.772	313.729	315.114	315.424	103.357	110.805	105.935	104.741	106.245	105.935	108.776	103.739	107.558	105.505	103.595	103.810	26.478
71.000	316.833	308.597	313.276	314.278	313.109	313.753	311.151	315.520	311.700	313.586	315.042	315.687	103.094	111.139	106.054	104.646	106.078	105.553	108.465	103.691	107.606	105.720	103.595	103.500	38.344
72.000	316.499	308.429	313.777	314.971	313.204	313.944	311.008	315.353	311.605	313.634	315.257	315.711	103.118	111.115	105.815	104.479	106.293	105.290	108.251	103.619	107.296	105.601	103.715	103.691	52.918
73.000	316.594	308.549	313.801	314.398	312.918	314.302	311.247	315.329	312.010	313.586	315.400	316.045	103.357	111.569	105.601	104.359	106.030	105.075	107.892	103.667	107.224	105.744	103.691	103.118	44.887
74.000	316.737	308.334	313.849	314.971	313.109	314.684	311.628	315.544	312.273	313.252	315.162	315.305	103.213	112.094	105.553	104.216	105.935	104.908	107.678	103.715	107.224	105.792	103.524	103.548	28.373
75.000	316.690	307.737	313.849	315.019	313.061	314.469	312.058	315.615	312.249	313.419	315.424	315.782	103.189	112.548	105.481	104.192	106.102	104.717	107.129	103.476	106.961	105.911	103.595	103.691	30.945
76.000	316.427	306.973	314.016	314.517	312.727	314.565	312.392	315.329	312.321	313.347	315.186	315.759	103.166	113.025	105.362	104.120	105.983	104.574	106.723	103.619	106.914	106.030	103.619	103.643	48.406
77.000	316.690	306.520	314.350	314.613	312.679	314.589	313.252	315.448	312.464	313.061	315.400	315.735	103.333	113.192	105.266	103.953	106.102	104.502	106.341	103.667	106.675	106.006	103.715	103.762	51.384
78.000	316.809	306.424	314.732	314.947	312.488	314.565	313.419	315.424	312.631	313.371	315.424	315.544	103.070	113.670	105.290	104.168	106.150	104.455	105.863	103.739	106.723	106.054	103.691	103.715	34.870
79.000	316.355	305.780	314.684	315.042	312.894	314.851	313.634	315.377	312.751	312.894	314.828	315.639	102.927	113.789	105.052	104.144	106.174	104.502	105.744	103.619	106.508	106.030	103.524	103.619	27.155
80.000	316.499	305.875	314.828	315.329	313.204	314.875	313.801	315.400	312.798	313.013	315.090	315.639	103.500	113.861	105.028	103.953	106.412	104.335	105.457	103.571	106.269	106.054	103.667	103.739	41.458
81.000	317.000	305.302	314.541	314.995	313.061	315.233	314.302	315.448	312.703	312.560	315.257	315.568	103.452	114.147	104.956	104.001	106.436	104.311	105.219	103.739	106.317	106.054	103.548	103.691	53.324
82.000	317.072	305.732	314.493	314.971	312.679	315.472	314.565	315.496	313.085	312.846	315.019	315.305	103.094	114.267	104.884	103.977	106.412	104.192	105.004	103.643	106.174	106.126	103.667	103.715	42.044
83.000	316.379	305.421	314.469	314.804	312.464	314.828	314.541	315.902	313.419	313.156	315.496	315.759	103.261	114.553	104.717	103.786	106.269	104.192	104.980	103.667	106.221	106.054	103.548	103.691	27.200
84.000	316.618	304.920	314.756	315.090	312.989	315.138	314.780	315.615	313.109	312.894	314.995	315.782	103.309	114.505	104.789	103.882	106.388	104.144	104.884	103.548	106.150	106.221	103.619	103.691	33.833
85.000	316.523	305.421	314.828	314.947	312.655	314.851	314.708	315.424	313.347	312.536	315.305	315.902	103.166	114.553	104.717	103.906	106.341	104.144	104.598	103.619	106.030	106.293	103.715	103.882	50.482
86.000	316.881	305.016	314.660	315.496	313.133	315.042	314.851	315.663	313.467	312.727	315.138	315.186	103.166	114.625	104.741	104.049	106.508	104.073	104.622	103.667	105.983	106.197	103.643	103.643	48.857
87.000	316.451	305.350	314.732	314.995	312.607	315.114	314.732	315.305	313.109	312.798	315.257	315.902	103.309	114.792	104.741	103.929	106.436	104.144	104.526	103.643	105.815	106.174	103.619	103.619	32.389
88.000	316.690	305.135	314.708	314.995	312.631	315.353	314.804	315.711	313.443	313.395	315.472	315.568	102.879	114.649	104.622	103.882	106.412	103.977	104.479	103.548	105.768	106.388	103.739	103.786	27.877
89.000	316.809	304.992	315.210	315.114	313.013	315.138	314.804	315.377	313.276	312.870	314.947	315.496	102.951	114.768	104.646	103.858	106.508	104.144	104.431	103.595	105.839	106.174	103.595	103.739	43.262
