-----------------------------------------------------
BloodHound 307 VOC Analyser V2017.1
RoboScientific Ltd 
Espace North
Wisbech Road
Littleport
Cambridgeshire, UK
CB6 1RA 
-----------------------------------------------------
Date = 04/02/2021
Time = 10:20:59
Data is protected by RoboScientific Limited
-----------------------------------------------------
Name of the experiment = "5649P"
-----------------------------------------------------
Repeat No. = 2/4
-----------------------------------------------------
Experimental Time (in sec) and Flow Profile :
-----------------------------------------------------
Baseline = 2.00
Absorb = 10.00
Pause = 1.00
Desorb = 5.00
Flush = 10.00
Wait = 5.00
Higher Flow (V) = 4.00
Medium Flow (V) = 3.00
Low Flow (V) = 1.00
-----------------------------------------------------
Total Profile Time = 33 in sec
-----------------------------------------------------
Acquired data point per second = 4
--------------------------------------------------
Total data point stored  = 112
-----------------------------------------------------
Acquired sensor responses from 24 sensors
-----------------------------------------------------

Data Points	 Sen-1	 Sen-2	 Sen-3	 Sen-4	 Sen-5	 Sen-6	 Sen-7	 Sen-8	 Sen-9	 Sen-10	 Sen-11	 Sen-12	 Sen-13	 Sen-14	 Sen-15	 Sen-16	 Sen-17	 Sen-18	 Sen-19	 Sen-20	 Sen-21	 Sen-22	 Sen-23	 Sen-24	Humidity (%r.h.)
0.000	316.546	304.132	314.899	315.114	312.225	315.042	315.424	315.472	313.180	311.652	315.019	315.687	103.189	115.651	104.646	104.097	107.320	104.383	104.311	103.619	105.768	107.320	103.667	103.786	51.880
1.000	316.952	304.108	314.732	314.804	312.154	315.281	315.162	315.424	313.562	311.748	315.162	315.687	103.118	115.651	104.837	104.144	107.248	104.288	104.240	103.643	105.720	107.320	103.739	103.858	45.654
2.000	316.737	303.965	314.422	314.637	311.772	314.899	315.138	315.472	313.849	312.130	315.281	315.472	103.118	115.532	104.884	104.049	107.129	104.144	104.311	103.858	105.768	107.320	103.739	103.834	27.832
3.000	316.523	304.156	314.947	314.947	311.843	314.637	315.233	315.615	313.634	311.915	315.114	315.520	103.189	115.604	104.908	104.168	107.129	104.168	104.168	103.619	105.863	107.272	103.643	103.810	33.291
4.000	316.714	303.607	314.708	314.923	311.987	315.066	315.162	315.615	313.610	311.987	315.233	315.639	103.118	115.723	104.908	104.001	107.248	104.168	104.240	103.643	105.744	107.129	103.619	103.834	51.339
5.000	316.475	304.610	314.589	314.947	312.201	315.090	315.114	315.424	313.371	311.819	315.233	315.448	103.022	115.747	104.861	104.025	107.057	104.025	104.264	103.548	105.911	107.320	103.619	103.858	46.466
6.000	316.809	304.037	314.828	315.066	311.939	315.162	315.305	315.424	313.538	311.987	315.281	315.329	103.118	115.508	104.884	104.144	107.152	104.264	104.240	103.715	105.648	107.272	103.476	103.595	28.418
7.000	316.761	304.228	314.660	315.019	312.082	314.899	315.114	315.663	313.371	311.700	315.257	315.591	103.094	115.532	104.861	104.240	107.224	104.120	104.288	103.643	105.768	107.343	103.786	103.882	33.246
8.000	316.618	303.941	314.756	314.684	311.772	315.042	315.090	315.448	313.395	311.819	315.042	315.568	102.855	115.675	104.813	104.025	107.105	104.168	104.359	103.715	105.911	107.296	103.667	103.619	51.835
9.000	316.332	303.941	314.828	314.899	312.201	315.114	315.042	315.233	313.300	311.987	315.210	315.520	103.022	115.580	104.956	104.049	107.057	104.025	104.097	103.619	105.720	107.343	103.762	103.929	45.834
10.000	316.857	304.013	314.756	315.019	312.154	315.329	315.353	315.377	313.538	312.130	315.162	315.353	103.046	115.365	104.837	104.073	107.057	104.192	104.216	103.906	105.815	107.224	103.667	103.715	27.787
11.000	316.761	303.893	314.780	314.660	312.034	315.090	315.305	315.353	313.276	311.581	314.780	315.186	103.285	115.556	104.956	104.216	107.176	104.144	104.216	103.619	105.863	107.320	103.715	103.810	33.968
12.000	316.785	302.222	314.350	314.660	310.888	314.660	314.804	315.496	312.870	311.079	314.947	315.114	103.022	117.418	105.147	104.216	107.630	104.264	104.383	103.762	106.508	108.107	103.762	103.929	51.429
13.000	316.857	299.644	314.374	314.469	310.220	314.374	314.565	315.329	312.034	309.933	314.398	315.090	103.022	120.163	105.338	104.670	108.633	104.598	104.837	103.858	107.272	108.871	103.882	104.073	45.699
14.000	316.881	296.302	313.873	314.637	309.552	314.493	314.684	315.281	310.650	308.955	314.637	314.207	103.118	123.219	105.720	104.837	109.444	105.028	105.099	103.858	108.537	110.137	104.311	104.837	28.193
15.000	316.427	293.461	313.729	313.777	308.334	313.562	313.347	314.756	309.337	307.809	313.538	313.777	103.022	126.227	106.174	105.075	110.447	105.338	105.935	104.097	109.969	111.306	104.908	105.195	33.427
16.000	316.642	289.808	312.679	313.610	307.689	313.156	312.369	314.589	307.116	306.042	313.037	313.204	102.807	129.761	106.460	105.099	111.426	106.006	107.272	104.550	112.023	112.763	105.362	105.887	51.339
17.000	316.379	286.323	312.321	313.061	306.090	312.464	310.793	314.469	305.541	304.514	312.154	312.201	102.975	133.485	107.152	105.505	112.524	106.770	108.633	104.765	113.837	114.410	106.508	107.057	46.105
18.000	316.761	282.551	311.891	313.133	305.421	311.652	308.811	314.087	302.748	302.891	311.079	311.079	103.142	137.448	107.678	106.030	113.789	107.534	110.662	105.243	116.200	116.129	107.773	108.274	28.554
19.000	316.976	278.468	311.127	312.416	304.084	310.626	306.448	313.491	300.145	300.694	309.313	309.623	103.094	141.029	108.012	106.388	114.816	108.656	112.763	105.696	118.970	118.039	109.229	109.492	32.930
20.000	316.523	274.434	310.554	312.249	303.010	309.432	303.822	312.655	296.922	298.713	307.666	307.880	102.903	145.493	108.752	106.866	115.962	109.802	115.627	106.293	122.121	120.092	110.948	110.972	49.624
21.000	316.475	270.853	310.292	311.366	301.817	308.191	300.862	312.034	294.249	297.042	305.589	306.114	103.070	149.385	109.349	107.439	117.370	111.092	118.206	106.985	125.177	122.360	113.192	112.882	47.413
22.000	316.809	266.866	309.480	310.817	300.575	306.615	298.331	311.485	291.002	294.965	303.535	304.371	102.951	153.085	110.089	107.892	118.492	112.500	121.309	107.606	128.686	124.389	115.246	114.673	29.907
23.000	316.928	263.356	308.692	310.124	299.214	305.087	294.822	310.578	287.230	292.936	300.957	302.222	102.998	156.570	110.686	108.513	119.662	113.837	124.365	108.561	131.790	126.562	117.824	116.726	33.652
24.000	316.164	259.680	308.119	309.528	298.140	303.488	291.408	309.575	283.864	290.405	298.068	300.050	102.998	160.247	111.044	108.967	120.736	115.532	127.779	109.468	135.228	128.567	120.498	119.065	49.489
25.000	316.714	256.409	307.880	309.098	297.209	301.936	288.686	308.358	280.879	288.686	295.633	297.806	102.975	163.279	111.808	109.850	122.002	117.561	131.121	110.590	138.570	130.716	123.219	121.381	45.383
26.000	316.523	253.497	306.902	308.406	295.872	299.596	285.153	307.116	277.322	286.466	292.673	295.586	103.189	166.382	112.619	110.590	123.195	119.423	134.320	111.569	141.936	132.673	126.299	123.840	30.178
27.000	317.048	250.680	306.281	307.403	294.654	297.854	282.097	306.281	274.553	284.699	289.498	293.246	103.118	168.913	113.049	111.068	124.103	121.429	137.519	112.882	144.944	134.583	128.925	125.821	34.600
28.000	316.403	248.435	305.732	306.997	293.962	295.633	278.349	304.610	271.258	282.193	287.063	290.930	102.998	171.754	113.837	111.975	125.129	123.530	140.623	114.028	147.928	136.851	132.052	128.280	48.857
29.000	316.570	246.024	305.230	306.114	292.840	293.413	275.627	303.750	268.418	280.426	283.911	288.782	102.712	174.022	114.744	112.739	126.347	125.678	143.870	115.604	151.247	138.737	134.559	130.262	44.390
30.000	316.976	243.613	304.562	305.827	291.933	291.575	272.715	302.246	265.481	278.444	281.118	286.538	102.951	176.362	115.293	113.550	127.445	127.994	147.069	116.988	153.658	140.671	137.615	132.673	31.306
31.000	316.785	241.608	303.344	304.490	290.405	289.044	269.731	301.005	263.165	276.773	278.516	284.270	102.831	178.510	115.818	114.434	128.615	130.143	149.838	118.397	156.499	142.437	140.098	134.869	35.592
32.000	316.857	239.483	302.819	303.655	289.283	286.776	266.675	299.190	260.492	274.649	275.603	281.787	103.094	180.253	116.821	115.293	129.761	132.243	152.679	119.567	158.719	144.252	143.058	137.281	47.504
33.000	316.809	238.027	301.649	302.318	288.209	284.532	263.834	297.806	258.247	273.288	273.670	279.996	102.784	182.282	117.776	116.248	131.026	134.559	155.759	121.333	161.297	145.827	145.254	139.095	43.714
34.000	316.857	236.236	300.957	301.578	287.015	282.216	260.969	296.254	255.908	271.760	271.115	277.991	102.975	184.120	118.683	117.203	132.267	136.923	158.480	122.909	163.756	147.451	147.713	141.220	32.253
35.000	317.239	234.660	299.907	300.480	285.654	280.617	258.415	294.893	253.735	269.969	268.728	275.747	102.951	185.768	119.495	118.063	133.222	138.689	160.892	124.461	165.953	149.265	150.053	143.154	36.946
36.000	316.403	232.965	298.713	299.405	284.437	278.277	255.717	292.912	251.157	268.107	266.341	273.956	103.118	187.319	120.593	119.161	134.440	140.647	163.470	126.156	167.982	151.175	152.631	145.326	46.737
37.000	317.000	231.605	297.997	298.546	283.792	276.535	253.401	291.551	249.486	266.914	264.478	271.999	103.022	188.728	121.667	120.378	135.705	142.676	166.096	127.898	170.059	152.464	154.756	147.117	42.450
38.000	317.263	230.602	296.278	297.137	281.834	274.792	251.133	289.975	247.863	264.980	262.115	270.471	102.903	190.232	122.813	121.333	137.018	144.419	168.221	129.259	171.849	154.088	157.000	149.122	33.246
39.000	316.690	229.241	295.633	296.493	281.142	273.001	249.104	288.137	246.048	263.595	260.253	268.943	103.118	191.306	124.007	122.575	138.140	146.353	170.417	130.930	173.807	155.234	158.624	150.578	36.810
40.000	316.714	227.976	294.105	294.893	279.781	271.187	247.027	286.514	244.162	261.996	257.770	266.508	102.903	192.643	124.986	123.601	139.453	148.143	172.184	132.387	175.383	156.857	160.772	152.202	45.699
41.000	316.570	226.735	293.150	293.867	278.230	269.516	245.356	284.938	242.395	260.969	256.314	265.195	103.070	193.837	126.442	125.057	141.148	150.148	174.476	134.082	177.269	158.170	162.658	154.040	42.450
42.000	316.976	225.780	291.551	293.079	277.227	267.725	243.685	283.983	241.345	259.799	254.452	263.476	102.998	194.863	127.588	126.180	142.318	151.629	176.075	135.753	178.630	159.531	164.616	155.687	34.239
43.000	316.809	224.992	290.882	291.790	275.556	265.935	242.228	281.954	239.602	258.415	252.780	261.900	102.975	195.723	128.734	127.254	143.631	153.467	177.555	137.090	180.205	160.724	165.857	157.072	36.901
44.000	317.096	224.490	288.996	290.381	274.338	264.407	240.438	280.498	237.764	257.388	251.324	260.587	102.927	196.702	130.095	128.567	145.159	154.995	179.370	138.618	181.590	162.085	167.767	158.791	44.616
45.000	316.379	223.273	287.994	289.283	272.930	262.569	238.934	278.970	236.952	255.979	249.892	259.632	102.879	197.203	131.718	129.808	146.424	156.570	180.778	140.146	183.046	163.207	169.271	160.510	42.766
46.000	317.358	222.915	286.514	287.755	271.163	261.065	237.478	277.728	235.711	254.857	248.412	257.746	103.070	198.086	132.983	131.026	147.881	158.409	182.067	141.769	184.335	164.353	170.775	161.751	34.870
47.000	317.024	222.103	285.296	286.609	270.017	259.561	236.499	275.938	234.326	253.831	246.645	256.552	102.975	198.612	134.416	132.482	149.337	159.769	183.476	142.939	185.457	165.237	172.040	162.921	37.803
48.000	316.666	221.769	283.840	285.153	268.680	258.247	235.090	274.887	233.371	252.733	245.404	255.072	103.118	199.137	135.824	133.747	150.769	161.154	184.479	144.395	186.579	166.478	173.497	164.425	44.390
49.000	316.881	221.363	282.145	283.625	267.176	257.197	234.446	273.359	232.488	251.682	244.091	253.640	102.998	199.089	137.114	134.822	152.130	162.873	185.672	145.756	187.534	167.409	174.834	165.809	42.135
50.000	317.167	221.649	282.240	284.246	267.319	257.412	234.326	273.622	232.607	252.327	244.520	253.616	102.831	198.874	137.519	134.965	152.440	162.801	185.529	145.613	187.367	167.290	174.523	165.069	35.547
51.000	317.215	221.721	282.312	284.126	267.486	257.197	234.422	274.171	232.798	252.518	244.878	254.547	102.855	198.922	137.352	134.822	152.249	162.491	185.362	145.565	187.081	167.051	174.476	165.069	37.848
52.000	316.737	221.864	282.384	284.317	267.248	257.436	234.828	273.861	232.631	252.255	245.189	254.786	103.094	198.731	137.257	134.559	152.225	162.276	185.123	145.326	186.961	167.099	174.285	164.902	44.210
53.000	317.167	222.127	282.240	284.532	267.272	257.555	234.875	274.267	232.918	252.494	245.236	254.547	103.070	198.707	137.257	134.631	152.178	162.419	185.075	145.302	187.081	166.884	174.165	164.831	42.089
54.000	316.905	221.578	281.691	283.840	266.603	256.409	233.897	272.977	232.202	251.730	243.732	253.616	103.285	199.113	138.092	135.371	153.228	163.398	186.006	146.376	187.845	167.839	175.287	165.929	35.502
55.000	316.594	226.520	282.455	284.747	268.728	259.107	239.125	274.505	237.287	255.502	247.982	257.913	102.831	193.980	137.281	134.607	150.889	160.533	181.303	144.968	182.712	163.947	171.038	161.274	38.254
56.000	316.714	240.557	286.824	288.805	275.508	267.558	250.608	280.665	249.510	265.314	259.274	269.659	102.951	179.680	132.243	129.928	143.392	151.462	168.674	138.427	170.035	153.539	159.650	149.647	44.797
57.000	316.928	257.961	293.150	294.559	284.723	278.492	265.529	288.877	265.099	276.940	272.428	282.479	102.975	161.942	126.323	124.461	134.511	140.623	153.586	130.119	154.756	141.841	145.971	136.135	42.902
58.000	316.355	275.198	299.023	300.241	293.389	289.020	280.092	296.540	279.352	288.495	285.224	294.535	103.022	146.400	120.426	119.089	126.776	131.050	140.480	123.195	140.981	131.241	134.368	125.034	31.712
59.000	316.809	287.731	304.299	304.753	299.883	297.161	291.026	302.461	290.596	297.257	295.060	303.726	102.975	133.724	115.627	114.386	119.853	123.386	130.023	116.917	129.999	122.336	124.174	116.105	34.780
60.000	316.451	295.036	307.093	307.427	304.228	302.007	297.376	306.257	297.376	302.700	301.411	308.167	103.166	125.296	112.309	111.497	115.293	117.442	122.288	112.954	122.288	116.535	117.490	111.092	49.760
61.000	316.666	300.289	309.026	309.480	306.496	305.302	302.413	309.552	302.461	306.376	305.756	310.984	103.118	119.901	110.304	109.397	112.357	113.956	117.895	110.113	117.752	112.978	113.264	108.346	45.879
62.000	316.546	303.774	310.626	310.817	308.811	307.546	304.777	310.817	305.063	308.620	308.191	312.464	102.975	116.750	108.800	108.251	110.710	111.879	115.102	108.537	114.887	110.757	110.423	106.603	28.734
63.000	316.761	305.875	311.438	311.796	309.790	309.408	306.925	312.058	306.878	310.387	310.554	313.538	103.070	114.625	108.083	107.343	109.373	110.184	112.906	107.248	113.001	109.182	108.537	105.457	33.472
64.000	316.332	307.116	312.321	312.440	310.841	310.172	307.642	312.822	308.334	311.079	311.748	314.422	103.189	113.240	107.487	106.842	108.609	109.134	111.569	106.197	111.474	108.179	107.224	104.980	50.933
65.000	316.451	307.976	312.965	313.156	311.557	310.626	308.549	313.419	308.907	311.891	312.918	314.851	102.951	112.285	107.152	106.245	107.964	108.513	110.877	105.648	110.519	107.439	106.054	104.526	46.872
66.000	316.523	308.620	312.774	313.037	311.533	311.318	309.217	314.302	309.695	312.106	313.610	315.186	103.166	111.641	106.985	106.006	107.630	108.060	110.304	105.195	109.993	107.105	105.457	104.240	28.509
67.000	316.737	308.740	312.536	313.419	312.201	311.963	309.766	314.517	309.862	312.321	314.231	315.329	103.094	111.259	106.747	105.935	107.534	107.725	109.898	104.574	109.277	106.675	104.717	104.097	32.479
68.000	316.761	308.955	312.751	313.204	312.106	312.154	309.671	314.875	310.148	312.679	314.278	315.281	102.951	111.211	106.627	105.601	107.200	107.296	109.659	104.335	109.110	106.508	104.526	104.073	51.023
69.000	316.761	309.098	312.942	313.896	312.369	312.392	309.886	314.971	310.888	312.894	314.684	315.400	103.070	111.211	106.484	105.457	107.033	106.914	109.540	104.240	108.752	106.460	104.120	104.001	46.421
70.000	316.809	308.620	312.989	313.968	312.512	312.798	310.077	315.114	310.984	313.037	314.947	315.496	103.022	111.283	106.508	105.386	106.914	106.579	109.444	104.025	108.537	106.174	104.049	103.858	28.148
71.000	316.523	308.406	312.774	313.849	312.727	312.822	309.910	315.305	310.936	312.751	314.899	315.615	103.070	111.378	106.412	105.147	106.747	106.388	109.397	103.953	108.322	106.293	103.929	103.739	33.652
72.000	316.928	308.382	313.109	314.064	312.512	312.989	310.029	315.329	311.223	313.276	315.210	315.329	102.927	111.664	106.436	104.932	106.579	106.030	109.158	103.906	108.179	106.317	103.858	103.715	51.519
73.000	316.570	308.262	312.989	314.207	312.369	313.586	310.554	315.305	311.199	312.655	315.281	316.021	103.070	111.879	106.293	104.741	106.388	105.744	109.110	103.786	108.012	106.388	103.643	103.166	47.188
74.000	316.857	307.856	313.729	314.637	312.989	313.920	310.530	315.424	311.366	312.512	315.090	315.687	103.094	112.070	106.030	104.646	106.436	105.672	108.967	103.858	107.797	106.341	103.667	103.691	28.283
75.000	316.737	307.236	313.228	315.019	312.679	314.255	310.888	315.377	311.485	312.583	315.186	315.759	103.046	112.572	105.959	104.574	106.460	105.195	108.442	103.786	107.630	106.508	103.643	103.786	32.299
76.000	316.284	307.355	313.873	314.493	312.488	313.968	311.079	315.329	311.628	312.416	315.329	315.735	103.189	112.858	105.720	104.311	106.508	105.243	108.179	103.595	107.367	106.293	103.667	103.786	50.482
77.000	317.167	306.448	314.302	314.971	312.942	314.637	311.748	315.544	311.772	312.464	315.257	315.663	103.046	113.264	105.577	104.335	106.603	104.956	107.582	103.619	107.200	106.699	103.643	103.786	48.361
78.000	316.857	306.066	313.562	314.660	312.416	314.493	312.130	315.759	312.321	312.106	314.875	315.257	102.998	113.765	105.481	104.120	106.460	104.932	107.343	103.953	107.367	106.866	103.715	103.715	29.682
79.000	316.451	306.090	314.469	315.042	312.536	314.446	312.536	315.448	312.178	312.082	315.281	315.520	103.094	113.932	105.481	104.264	106.699	104.789	106.603	103.667	107.152	106.938	103.619	103.858	30.990
80.000	316.117	305.421	313.992	314.565	312.369	314.302	312.679	315.233	312.440	312.560	315.210	315.639	103.189	114.195	105.219	104.144	106.723	104.670	106.365	103.691	106.914	106.842	103.619	103.810	49.850
81.000	316.952	305.350	313.992	314.804	312.297	314.613	313.324	315.472	312.297	312.154	315.257	315.400	103.070	114.673	105.290	104.120	106.890	104.526	105.887	103.739	106.842	107.009	103.715	103.858	48.451
82.000	316.857	305.278	314.446	314.493	312.201	314.517	313.920	315.639	312.798	312.034	314.947	315.377	103.094	114.696	105.243	104.311	106.890	104.502	105.553	103.667	106.914	107.200	104.025	103.906	29.682
83.000	316.690	304.729	314.016	314.565	312.369	314.756	314.040	315.615	312.679	312.130	315.090	315.544	103.404	114.959	105.195	104.144	106.866	104.479	105.648	103.762	106.723	107.200	103.595	103.834	30.810
84.000	316.475	304.681	314.517	315.066	312.249	314.708	314.040	315.257	312.345	311.939	315.233	315.377	103.070	115.078	105.243	104.144	106.961	104.455	105.314	103.595	106.484	107.152	103.643	103.929	49.669
85.000	316.881	304.347	314.446	314.828	311.915	314.565	314.207	315.544	313.156	312.201	315.353	315.520	103.046	115.078	105.243	104.144	106.938	104.383	105.171	103.715	106.532	107.224	103.643	103.786	48.496
86.000	317.215	304.347	314.350	314.899	312.440	314.995	314.684	315.496	312.846	311.700	315.114	315.615	103.094	115.269	105.219	104.144	107.081	104.264	105.004	103.762	106.341	107.033	103.619	104.001	29.636
87.000	316.618	304.490	314.255	314.756	312.201	314.732	314.660	315.806	312.918	311.843	314.828	315.400	103.166	115.341	105.099	104.216	107.009	104.431	104.932	103.667	106.412	107.248	103.643	103.810	31.035
88.000	316.308	304.753	314.422	314.804	312.225	314.828	314.231	315.233	312.822	311.939	315.090	315.520	102.903	115.317	105.147	104.216	107.129	104.407	104.884	103.643	106.293	107.272	103.691	103.739	49.489
89.000	316.881	304.371	314.708	314.780	311.891	314.684	314.732	315.663	312.942	311.724	315.090	315.544	103.118	115.532	105.028	104.097	106.961	104.264	104.789	103.643	106.197	107.152	103.667	103.810	49.308
