-----------------------------------------------------
BloodHound 307 VOC Analyser V2017.1
RoboScientific Ltd 
Espace North
Wisbech Road
Littleport
Cambridgeshire, UK
CB6 1RA 
-----------------------------------------------------
Date = 04/02/2021
Time = 14:42:22
Data is protected by RoboScientific Limited
-----------------------------------------------------
Name of the experiment = "5902P_2"
-----------------------------------------------------
Repeat No. = 3/4
-----------------------------------------------------
Experimental Time (in sec) and Flow Profile :
-----------------------------------------------------
Baseline = 2.00
Absorb = 10.00
Pause = 1.00
Desorb = 5.00
Flush = 10.00
Wait = 5.00
Higher Flow (V) = 4.00
Medium Flow (V) = 3.00
Low Flow (V) = 1.00
-----------------------------------------------------
Total Profile Time = 33 in sec
-----------------------------------------------------
Acquired data point per second = 4
--------------------------------------------------
Total data point stored  = 112
-----------------------------------------------------
Acquired sensor responses from 24 sensors
-----------------------------------------------------

Data Points	 Sen-1	 Sen-2	 Sen-3	 Sen-4	 Sen-5	 Sen-6	 Sen-7	 Sen-8	 Sen-9	 Sen-10	 Sen-11	 Sen-12	 Sen-13	 Sen-14	 Sen-15	 Sen-16	 Sen-17	 Sen-18	 Sen-19	 Sen-20	 Sen-21	 Sen-22	 Sen-23	 Sen-24	Humidity (%r.h.)
0.000	316.857	304.848	315.329	315.162	312.416	315.520	315.544	315.759	314.040	312.655	315.066	315.329	103.357	115.078	104.240	103.906	106.699	103.977	104.001	103.548	105.243	106.269	103.739	103.691	26.749
1.000	316.618	304.490	315.305	315.138	312.225	315.138	315.377	315.615	314.135	313.133	314.971	315.759	103.118	114.887	104.264	103.882	106.627	103.906	104.120	103.476	105.314	106.102	103.524	103.762	34.735
2.000	316.260	304.610	315.042	314.756	312.703	315.424	315.329	315.735	314.040	312.965	315.162	315.568	103.118	115.102	104.264	103.834	106.412	104.073	104.168	103.643	105.290	106.245	103.500	103.619	51.384
3.000	316.355	304.753	315.186	314.828	312.583	315.162	315.472	315.544	313.729	312.774	315.281	315.735	102.998	115.007	104.288	103.858	106.556	104.025	104.120	103.595	105.338	106.317	103.667	103.739	48.000
4.000	316.785	304.729	315.138	314.732	312.464	315.472	315.281	315.615	313.729	312.703	315.210	315.448	103.022	115.102	104.192	103.906	106.556	104.120	104.168	103.595	105.314	106.341	103.571	103.548	31.261
5.000	316.523	304.586	314.995	315.066	312.631	315.210	315.591	315.568	313.968	312.846	315.400	315.687	102.951	114.983	104.264	103.929	106.484	103.858	104.073	103.548	105.290	106.269	103.619	103.691	29.095
6.000	316.212	304.634	314.923	315.019	312.583	315.329	315.544	315.472	313.920	312.631	314.899	315.353	103.070	115.007	104.288	103.858	106.532	103.906	104.168	103.548	105.171	106.174	103.571	103.739	45.112
7.000	316.355	304.777	315.090	314.971	312.512	315.019	315.281	315.544	314.135	312.822	314.899	315.520	102.927	114.959	104.192	103.834	106.532	104.049	104.120	103.643	105.243	106.317	103.571	103.571	52.963
8.000	316.690	304.872	315.114	314.899	312.440	315.162	315.591	315.615	313.896	312.679	315.210	315.735	102.998	114.911	104.144	103.929	106.579	103.882	104.049	103.571	105.314	106.245	103.715	103.739	39.066
9.000	316.499	304.275	315.305	315.496	312.607	315.210	315.329	315.496	313.920	312.703	314.971	315.448	103.142	115.007	104.216	103.882	106.484	103.953	104.073	103.691	105.362	106.221	103.548	103.548	26.523
10.000	316.785	305.016	315.496	315.281	312.631	315.281	315.544	315.472	313.968	312.679	315.114	315.377	103.118	114.744	104.383	103.929	106.412	103.906	104.073	103.643	105.219	106.126	103.452	103.667	37.758
11.000	316.618	304.562	315.138	315.353	312.321	315.233	315.305	315.329	313.849	312.655	315.353	315.472	103.285	115.031	104.264	103.906	106.556	103.906	104.073	103.643	105.410	106.341	103.571	103.595	52.873
12.000	316.451	302.533	314.875	314.995	312.010	314.828	315.019	315.329	313.300	312.082	315.210	315.472	103.046	117.084	104.407	104.025	107.296	104.144	104.335	103.548	105.839	107.057	103.762	103.882	46.511
13.000	316.284	299.811	314.875	314.517	311.223	314.541	314.469	314.851	312.416	311.294	314.637	315.472	103.237	119.853	104.765	104.359	107.988	104.479	104.622	103.858	106.842	107.725	103.929	104.216	29.276
14.000	316.833	296.349	314.302	314.183	310.459	314.565	314.613	315.186	311.199	310.124	314.398	314.780	102.951	123.076	105.171	104.550	108.800	104.526	104.837	104.001	107.916	108.919	104.383	104.431	29.817
15.000	316.737	292.554	313.968	313.944	309.361	314.016	313.729	315.019	309.695	308.883	313.896	314.016	103.166	126.753	105.410	104.908	109.683	105.147	105.386	104.144	109.349	110.113	104.908	105.028	47.143
16.000	316.618	289.116	313.849	314.302	308.191	313.347	312.631	314.589	307.689	307.355	313.133	313.491	103.189	130.716	105.601	105.219	110.924	105.625	106.699	104.455	111.378	111.521	105.481	105.720	51.925
17.000	316.403	284.413	312.989	313.228	306.973	312.751	311.270	314.350	305.875	306.329	312.512	312.751	102.975	135.132	106.293	105.386	111.855	106.245	108.179	104.789	113.598	113.145	106.556	106.579	36.585
18.000	316.785	280.498	312.751	312.942	305.947	311.915	309.170	313.968	303.058	304.180	310.936	311.557	102.879	139.143	106.651	105.863	112.954	107.009	109.922	105.195	116.320	114.935	107.654	107.630	27.110
19.000	316.857	276.200	312.345	312.751	304.777	310.841	306.639	313.419	300.384	302.389	309.575	310.315	102.975	143.297	107.057	106.197	114.052	108.131	112.405	105.553	118.636	116.559	109.110	108.800	39.788
20.000	316.833	271.736	312.034	312.297	303.655	309.695	304.252	312.846	296.946	300.671	307.689	308.429	103.118	147.833	107.511	106.532	115.222	109.158	114.887	106.245	122.121	118.659	111.068	110.757	52.377
21.000	316.594	267.582	311.151	311.843	302.533	308.429	301.411	312.106	294.034	298.928	305.827	306.854	103.046	152.011	107.916	107.105	116.415	110.423	118.063	107.057	125.511	120.617	113.025	112.094	43.172
22.000	316.523	264.001	311.247	311.700	302.055	307.116	298.259	311.103	290.262	296.326	303.631	305.111	102.831	155.711	108.633	107.463	117.609	111.927	121.166	107.821	128.925	122.622	115.031	113.932	28.644
23.000	316.737	260.110	310.387	311.199	300.647	305.875	294.941	310.339	286.919	294.320	300.718	302.962	102.927	159.626	109.253	108.060	118.707	113.383	124.365	108.537	132.100	124.556	117.728	115.866	33.833
24.000	316.666	256.624	309.289	309.719	298.999	303.941	291.718	309.528	283.577	292.458	298.474	301.482	102.927	163.088	109.850	108.824	119.877	115.031	127.588	109.468	135.681	126.824	120.187	117.991	48.000
25.000	316.881	253.807	308.979	309.599	298.212	302.246	288.376	308.573	280.068	290.524	295.681	298.904	102.784	166.215	110.184	109.110	120.832	116.917	131.217	110.757	139.382	128.639	123.052	119.996	48.361
26.000	316.952	250.369	308.883	309.193	297.400	300.599	285.033	307.546	276.964	288.662	293.341	297.161	103.094	169.295	110.829	109.826	121.739	118.946	134.846	111.760	142.581	130.787	125.989	122.384	34.825
27.000	316.260	247.910	307.856	308.262	296.111	298.355	281.381	306.329	273.192	286.394	290.238	294.893	103.022	171.826	111.569	110.710	122.957	120.689	137.854	112.715	145.660	132.697	128.567	124.270	29.546
28.000	317.072	245.236	306.734	307.594	295.251	296.684	278.253	305.063	270.805	284.437	287.278	292.673	103.189	174.285	112.381	111.450	123.935	122.813	141.100	114.052	148.812	134.774	131.408	126.705	40.871
29.000	317.048	243.207	306.114	306.734	293.962	294.082	274.911	303.679	267.701	282.622	284.628	290.381	102.951	176.481	113.049	112.285	125.081	125.010	144.371	115.222	151.820	136.469	134.129	128.758	49.940
30.000	316.499	241.202	305.517	305.708	293.127	292.243	272.094	302.270	264.717	281.070	282.097	288.447	102.712	178.749	113.932	112.978	126.132	127.087	147.522	116.726	154.661	138.474	136.994	130.811	42.225
31.000	316.737	239.555	304.610	305.087	291.837	290.071	268.919	300.862	262.139	278.826	279.041	286.227	103.189	180.826	114.482	113.574	127.206	129.689	150.865	118.277	157.478	140.122	139.453	132.936	31.125
32.000	316.666	237.334	303.774	304.443	290.882	287.612	266.006	299.095	259.775	277.251	277.084	284.293	102.975	182.425	115.317	114.601	128.519	131.742	153.443	119.662	159.937	142.032	141.888	134.893	35.096
33.000	316.236	235.997	302.962	303.368	289.569	285.511	263.142	297.734	257.173	275.221	274.362	282.073	102.855	184.288	116.200	115.436	129.593	133.891	156.356	121.309	162.324	143.870	144.371	136.827	46.511
34.000	316.284	234.183	302.031	302.557	288.304	283.315	260.563	296.540	254.834	273.670	272.142	280.951	102.998	186.006	117.370	116.535	130.620	135.848	158.862	122.766	164.616	145.493	147.117	138.904	45.925
35.000	316.928	232.774	300.766	301.458	287.158	281.476	258.200	294.869	252.589	272.428	269.850	278.755	102.998	187.510	118.468	117.466	132.029	137.734	161.679	124.413	166.836	147.308	149.432	140.862	35.322
36.000	316.666	231.366	300.002	300.862	285.797	279.566	255.621	293.365	250.608	270.614	267.296	276.391	103.333	188.895	119.447	118.301	133.365	139.907	164.019	125.750	168.889	148.907	151.414	142.700	32.750
37.000	316.809	230.077	298.785	299.692	284.580	277.633	253.139	291.479	248.579	269.062	265.290	275.221	103.094	190.328	120.522	119.161	134.511	141.745	166.406	127.540	170.775	150.459	153.395	144.276	42.180
38.000	316.546	229.241	297.185	298.331	283.076	275.699	251.109	290.262	246.788	267.630	263.523	273.335	102.640	191.521	121.835	120.331	135.753	143.464	168.507	128.997	172.685	151.891	155.783	146.042	47.323
39.000	316.475	227.809	296.254	297.328	281.739	273.789	248.865	288.638	244.878	266.102	261.470	271.569	102.975	192.691	123.219	121.667	137.305	145.326	170.823	130.429	174.523	153.371	157.716	147.904	40.104
40.000	316.785	226.567	295.108	296.302	280.736	272.118	246.955	287.039	243.207	264.837	259.441	269.922	103.142	193.670	124.485	122.599	138.618	147.117	172.685	132.220	176.123	154.780	159.602	149.647	32.795
41.000	317.000	225.708	293.437	295.227	279.352	270.996	244.950	285.296	242.014	263.523	257.531	268.274	102.855	194.768	125.678	123.840	139.931	148.931	174.428	133.604	177.818	156.021	161.274	151.127	37.848
42.000	316.594	224.896	292.100	293.843	277.561	268.895	243.470	284.174	240.223	261.972	255.621	266.460	102.927	195.651	126.800	124.890	141.315	150.363	176.099	135.084	179.274	157.454	163.255	152.584	45.428
43.000	316.905	224.204	291.026	292.721	276.463	267.224	241.655	282.789	238.934	260.969	254.141	265.171	102.998	196.606	128.424	126.299	142.819	152.273	177.985	136.684	180.778	158.528	164.664	154.040	43.894
44.000	316.570	223.440	289.546	291.694	274.887	265.386	240.629	281.381	237.215	259.226	252.685	264.001	103.285	197.203	129.665	127.278	144.347	154.064	179.441	138.116	182.091	159.960	166.406	155.472	35.998
45.000	317.024	222.748	288.614	290.142	273.312	263.595	239.005	279.662	235.950	258.391	251.157	262.115	102.855	197.776	131.145	128.710	145.827	155.448	180.874	139.429	183.547	160.892	167.815	156.976	34.735
46.000	316.594	222.222	286.728	289.450	271.927	262.139	237.478	277.991	234.660	256.863	249.629	260.969	102.998	198.253	132.363	129.761	147.140	157.167	182.067	141.100	184.669	162.419	169.581	158.528	42.044
47.000	316.690	221.721	285.654	287.803	270.447	260.444	236.451	276.940	233.920	255.979	248.244	259.537	102.998	198.731	133.891	131.121	148.955	158.767	183.428	142.557	185.792	163.422	170.918	159.650	45.112
48.000	316.618	221.124	284.293	286.561	268.991	258.773	235.281	275.484	232.703	254.666	246.549	258.510	102.784	198.898	135.251	132.291	150.196	160.390	184.669	143.774	187.105	164.401	172.231	161.083	39.788
49.000	316.809	221.339	282.622	285.511	267.749	257.722	234.135	274.052	231.700	254.475	246.120	257.149	102.998	199.256	136.612	133.652	151.700	161.870	185.648	145.445	187.821	165.404	173.592	162.348	34.600
50.000	316.928	221.387	283.028	285.463	267.606	258.056	234.279	274.481	232.058	254.284	246.000	257.507	102.927	199.017	137.066	133.652	151.748	161.441	185.744	145.135	187.845	165.308	173.186	162.037	38.705
51.000	316.690	221.506	282.288	285.559	267.391	257.818	234.398	274.625	232.202	254.714	246.358	257.961	103.142	198.874	136.899	133.556	151.748	161.369	185.242	144.705	187.439	165.022	172.757	161.441	44.661
52.000	317.239	221.817	282.933	286.012	267.797	258.462	234.470	275.007	232.321	255.192	246.693	258.486	102.807	198.850	136.946	133.198	151.533	161.083	185.123	144.610	187.391	164.926	172.804	161.321	42.631
53.000	316.618	221.840	282.622	285.821	267.654	258.104	235.019	274.768	232.512	254.929	246.812	258.056	103.189	198.707	136.827	133.103	151.676	161.106	185.290	144.562	187.415	164.807	172.661	161.274	35.367
54.000	316.976	221.411	282.169	285.344	267.057	257.364	233.968	273.908	231.652	253.735	245.189	256.911	102.903	198.898	137.519	133.843	152.560	162.061	185.911	145.445	187.988	165.595	173.712	162.396	36.449
55.000	316.761	227.928	283.601	286.538	270.447	261.637	240.748	276.296	238.958	259.155	251.253	263.547	102.640	191.712	135.657	132.339	148.668	157.454	178.558	142.676	180.229	159.674	167.409	155.568	43.308
56.000	316.666	244.281	288.949	291.455	278.301	271.115	254.690	283.338	252.828	270.136	263.738	275.818	102.807	175.502	130.548	127.684	141.029	148.072	164.998	135.705	166.454	149.074	155.066	143.440	45.518
57.000	316.164	262.736	295.347	297.113	287.421	282.288	270.065	291.479	268.656	281.882	277.895	289.498	102.879	157.693	124.294	121.739	131.838	137.066	149.695	127.827	151.032	137.519	141.793	130.095	38.570
58.000	317.239	279.304	301.220	302.509	295.633	292.196	283.625	299.023	283.147	292.577	289.760	300.480	103.189	142.318	118.659	117.036	124.317	127.755	136.660	120.736	137.543	127.516	130.143	119.925	29.772
59.000	316.212	290.930	305.732	306.496	301.864	299.453	293.700	304.443	293.103	300.145	298.235	306.878	102.975	130.644	114.505	113.097	118.182	120.665	126.848	115.126	127.182	119.638	121.071	112.882	38.435
60.000	316.355	297.352	308.143	308.740	305.469	304.084	299.835	307.737	298.999	304.705	303.774	310.077	103.213	123.243	111.450	110.542	114.219	115.747	120.211	111.497	120.354	114.696	115.436	109.086	51.700
61.000	316.284	301.936	310.077	310.626	308.358	306.854	303.464	310.005	303.082	307.928	307.379	312.512	102.998	118.468	109.397	108.633	111.402	112.596	116.057	108.991	116.296	111.497	111.402	106.770	44.661
62.000	317.048	305.016	310.912	311.533	309.838	308.811	306.114	311.819	305.803	309.933	309.838	313.658	103.261	115.436	108.298	107.582	110.017	111.020	113.789	107.511	113.455	109.540	109.301	105.529	29.321
63.000	316.141	306.639	312.010	312.201	310.315	309.862	307.475	312.798	307.689	311.175	311.628	314.828	103.046	113.646	107.582	106.890	108.800	109.373	111.736	106.341	111.903	108.203	107.487	104.908	30.313
64.000	316.642	307.952	312.416	312.751	311.175	310.960	308.692	313.514	308.859	311.963	312.846	314.899	103.070	112.309	107.081	106.197	108.012	108.489	110.972	105.625	110.638	107.105	106.078	104.431	47.323
65.000	317.024	308.525	312.631	313.610	312.082	311.676	309.504	313.896	309.599	312.631	313.324	314.971	103.022	111.474	106.770	105.887	107.463	107.821	110.017	105.099	109.683	106.579	105.362	104.025	52.377
66.000	317.024	308.931	312.846	313.395	312.154	312.010	310.172	314.684	310.411	313.037	314.016	315.281	102.975	110.996	106.460	105.625	107.152	107.296	109.325	104.550	109.062	106.150	104.717	103.906	38.570
67.000	316.403	309.313	313.300	313.777	312.273	312.201	310.124	314.851	310.960	313.371	314.637	315.687	103.094	110.757	106.317	105.386	106.938	107.033	109.277	104.359	108.752	105.792	104.168	103.810	26.568
68.000	316.809	309.647	313.109	313.491	312.225	312.536	310.172	314.899	311.056	313.371	314.875	315.902	102.998	110.375	106.150	105.219	106.699	106.699	108.919	104.025	108.394	105.696	103.953	103.643	37.487
69.000	316.499	309.408	313.061	313.920	312.607	312.918	310.387	315.066	311.223	313.682	315.186	315.591	102.998	110.495	106.174	105.028	106.699	106.341	108.895	103.953	108.083	105.768	103.810	103.643	52.647
70.000	316.881	308.955	313.395	314.087	312.774	313.395	310.578	315.329	311.748	313.658	315.019	315.520	103.046	110.519	106.006	104.861	106.388	106.245	108.871	103.810	107.821	105.481	103.762	103.643	46.060
71.000	316.928	308.979	313.324	314.493	313.228	313.705	311.103	315.448	311.605	313.801	315.424	315.568	103.189	110.781	106.102	104.670	106.269	105.744	108.656	103.834	107.749	105.672	103.643	103.691	28.779
72.000	316.475	308.764	313.705	314.374	312.989	313.729	310.888	315.257	311.676	313.395	315.186	315.496	103.189	110.948	105.935	104.574	106.126	105.505	108.489	103.667	107.343	105.505	103.715	103.619	30.674
73.000	316.618	308.334	313.300	314.613	312.942	314.159	311.247	315.353	311.915	313.586	315.544	315.902	103.380	111.354	105.887	104.407	105.983	105.195	108.060	103.691	107.343	105.815	103.595	103.404	48.000
74.000	316.737	308.167	313.729	314.469	313.133	314.398	311.509	315.591	312.034	313.276	315.090	315.806	102.998	111.808	105.696	104.431	105.983	105.004	107.845	103.715	107.224	105.792	103.452	103.476	51.970
75.000	316.403	307.904	313.634	314.756	313.395	314.493	311.628	315.329	312.010	313.347	315.472	315.639	103.070	112.118	105.529	104.192	106.078	104.908	107.439	103.619	107.057	105.815	103.619	103.595	36.585
76.000	316.284	307.260	314.231	314.780	313.061	314.350	312.130	315.353	312.130	313.371	315.114	315.950	102.807	112.500	105.362	104.311	106.197	104.741	107.176	103.643	106.985	105.839	103.571	103.643	26.704
77.000	317.000	307.093	314.183	314.804	312.942	314.613	312.918	315.424	312.345	313.347	315.496	315.735	103.094	113.073	105.243	104.264	106.150	104.502	106.556	103.452	106.723	105.983	103.667	103.762	39.021
78.000	316.594	306.257	314.207	315.042	312.918	314.637	313.395	315.568	312.464	313.180	315.019	315.568	102.975	113.097	105.219	104.144	106.174	104.479	106.150	103.595	106.651	105.983	103.715	103.810	52.918
79.000	316.881	305.994	314.660	315.114	312.703	314.995	313.682	315.711	312.727	312.965	315.090	315.472	103.094	113.646	105.147	103.906	106.006	104.264	105.839	103.691	106.747	106.221	103.667	103.571	44.616
80.000	316.928	305.899	314.302	314.708	312.822	314.971	313.944	315.568	313.013	313.252	315.090	315.377	103.142	113.837	104.932	103.929	106.269	104.264	105.577	103.595	106.556	106.054	103.595	103.691	28.238
81.000	317.096	305.827	314.637	315.042	312.631	315.019	314.207	315.448	312.965	312.774	315.210	315.782	103.094	114.147	104.932	103.977	106.174	104.216	105.290	103.715	106.269	106.174	103.619	103.643	31.171
82.000	316.523	305.302	314.302	314.804	312.727	314.971	314.255	315.520	312.846	313.180	315.424	315.400	102.998	114.147	104.884	103.953	106.269	104.192	105.195	103.524	106.293	106.221	103.667	103.691	48.090
83.000	316.857	305.517	314.565	314.851	312.631	315.019	314.565	315.520	313.133	312.942	315.353	315.759	103.118	114.410	104.932	103.810	106.484	104.240	104.932	103.643	106.197	106.126	103.595	103.715	51.700
84.000	316.833	305.421	314.708	314.851	312.751	315.281	314.732	315.806	313.204	312.774	314.899	315.759	102.927	114.386	104.956	104.097	106.436	104.120	104.789	103.404	106.078	106.221	103.786	103.906	36.630
85.000	316.928	305.326	314.517	315.019	312.965	314.899	314.637	315.448	313.156	312.822	315.424	315.830	102.975	114.625	104.622	103.977	106.388	104.025	104.646	103.691	106.054	106.269	103.739	103.619	26.433
86.000	316.141	304.896	314.899	315.090	312.536	315.019	314.684	315.520	313.180	312.727	315.138	315.615	102.855	114.482	104.837	103.929	106.508	104.216	104.670	103.691	106.054	106.221	103.524	103.643	38.344
87.000	316.737	304.944	314.851	314.923	312.870	315.210	314.732	315.233	313.013	312.751	315.568	315.615	103.142	114.744	104.717	103.929	106.388	104.120	104.574	103.595	105.863	106.174	103.643	103.762	52.873
88.000	315.997	304.944	314.875	315.066	312.560	315.066	314.899	315.568	313.467	313.037	315.448	315.902	103.237	114.649	104.622	104.025	106.388	104.120	104.502	103.643	105.768	106.269	103.524	103.619	46.285
89.000	316.833	304.920	314.637	315.042	312.631	315.066	314.708	315.591	313.419	312.631	315.019	315.639	103.142	114.792	104.837	104.097	106.532	104.073	104.455	103.571	105.672	106.293	103.691	103.810	29.321
